Generated file C:/Users/didvk/OneDrive - University of Florida/UF_Isaiah_06-16-2020-Tue/Analysis/Re0.1Mo0.9B2/Re0.1Mo0.9B2_HPXRD_run2_300_20220710 - Copy/mask&dat&fxye_4position/10_ReMoB2_49p0GPa_490psi_P1_C4_D1w_077.fxye using DIOPTAS
# == pyFAI calibration ==
# Distance Sample to Detector: 0.2103851508954585 m
# PONI: 8.889e-02, 8.665e-02 m
# Rotations: 0.008634 -0.000915 0.000000 rad
# 
# == Fit2d calibration ==
# Distance Sample-beamCenter: 210.393 mm
# Center: x=493.236, y=515.685 pix
# Tilt: 0.497 deg  TiltPlanRot: -173.953 deg
# 
# Detector Detector	 Spline= None	 PixelSize= 1.720e-04, 1.720e-04 m
#    Detector has a mask: False 
#    Detector has a dark current: False 
#    detector has a flat field: False 
# 
# Wavelength: 4.133e-11 m
# Mask applied: None
# Dark current applied: None
# Flat field applied: None
# Polarization factor: None
# Normalization factor: None
BANK	1	1129	1129 CONS	282.731	1.89862 0.4133 0.0 FXYE
	282.731	0.626499	0.791517
	284.629	0.535524	0.731795
	286.528	0.409733	0.640104
	288.427	0.192892	0.439194
	290.325	0.0868292	0.294668
	292.224	0.396747	0.629879
	294.122	0.836801	0.914769
	296.021	1.01149	1.00573
	297.92	1.11699	1.05688
	299.818	0.424695	0.651686
	301.717	0.206744	0.454691
	303.616	-0.169346	0.411517
	305.514	0.0519903	0.228014
	307.413	0.437028	0.661081
	309.311	0.946076	0.972664
	311.21	1.50922	1.2285
	313.109	1.70057	1.30406
	315.007	0.956839	0.978181
	316.906	0.967064	0.983394
	318.805	0.675982	0.822181
	320.703	1.17464	1.08381
	322.602	1.5006	1.22499
	324.5	1.56254	1.25002
	326.399	1.76265	1.32765
	328.298	2.60513	1.61404
	330.196	2.73725	1.65446
	332.095	3.01544	1.7365
	333.993	2.93266	1.7125
	335.892	3.35725	1.83228
	337.791	4.12035	2.02987
	339.689	5.34442	2.3118
	341.588	7.99169	2.82696
	343.487	11.4149	3.3786
	345.385	15.7874	3.97334
	347.284	21.0413	4.58708
	349.182	25.5836	5.05802
	351.081	28.0668	5.29781
	352.98	27.1624	5.21176
	354.878	22.8663	4.78187
	356.777	17.3855	4.16959
	358.676	12.1897	3.49138
	360.574	8.20542	2.86451
	362.473	5.26754	2.29511
	364.371	4.24297	2.05985
	366.27	3.46245	1.86077
	368.169	3.41356	1.84758
	370.067	2.74195	1.65588
	371.966	2.44192	1.56267
	373.864	1.73145	1.31584
	375.763	1.82709	1.3517
	377.662	2.03128	1.42523
	379.56	2.27567	1.50853
	381.459	2.2612	1.50373
	383.358	2.35455	1.53445
	385.256	2.67906	1.63678
	387.155	1.98889	1.41028
	389.053	0.886446	0.941513
	390.952	0.514623	0.717373
	392.851	0.584556	0.764563
	394.749	1.10045	1.04902
	396.648	1.4557	1.20652
	398.547	1.61094	1.26923
	400.445	1.43469	1.19778
	402.344	1.35595	1.16445
	404.242	0.658855	0.811699
	406.141	1.10651	1.05191
	408.04	0.631464	0.794647
	409.938	0.933242	0.966044
	411.837	0.737872	0.858995
	413.735	0.61847	0.786429
	415.634	1.22323	1.106
	417.533	1.45943	1.20807
	419.431	1.22971	1.10892
	421.33	0.534207	0.730895
	423.229	0.0647178	0.254397
	425.127	0.0667992	0.258455
	427.026	0.437814	0.661675
	428.924	0.361274	0.601061
	430.823	0.133941	0.36598
	432.722	0.000916026	0.0302659
	434.62	-0.330892	0.575232
	436.519	0.290086	0.538596
	438.418	0.489338	0.699527
	440.316	0.436126	0.660399
	442.215	0.244823	0.494796
	444.113	0.843216	0.918268
	446.012	1.00694	1.00346
	447.911	0.658821	0.811678
	449.809	0.178539	0.422539
	451.708	-0.0466797	0.216055
	453.606	0.263537	0.513358
	455.505	0.368318	0.606892
	457.404	0.766397	0.875441
	459.302	0.988941	0.994455
	461.201	0.920908	0.959639
	463.1	0.577828	0.76015
	464.998	0.379417	0.615969
	466.897	0.620268	0.787571
	468.795	0.792888	0.890443
	470.694	0.990259	0.995118
	472.593	0.825981	0.908835
	474.491	0.529408	0.727604
	476.39	0.507467	0.712367
	478.289	0.608114	0.779817
	480.187	0.706631	0.840613
	482.086	0.690515	0.830972
	483.984	0.786726	0.886975
	485.883	0.79188	0.889876
	487.782	0.544209	0.737705
	489.68	0.434162	0.658909
	491.579	0.899194	0.948259
	493.478	0.254533	0.504512
	495.376	0.185624	0.430841
	497.275	-0.283031	0.532007
	499.173	0.0434382	0.208418
	501.072	-0.131876	0.363147
	502.971	0.176523	0.420147
	504.869	0.334015	0.577941
	506.768	0.757386	0.870279
	508.666	1.13514	1.06543
	510.565	1.34565	1.16002
	512.464	1.50502	1.22679
	514.362	1.20456	1.09753
	516.261	0.905394	0.951522
	518.16	0.331215	0.575513
	520.058	0.747704	0.864699
	521.957	1.24306	1.11492
	523.855	0.959962	0.979776
	525.754	1.15434	1.0744
	527.653	1.10619	1.05176
	529.551	1.1021	1.04981
	531.45	1.06832	1.0336
	533.349	1.14617	1.07059
	535.247	1.4201	1.19168
	537.146	1.48987	1.2206
	539.044	1.43388	1.19745
	540.943	0.910927	0.954425
	542.842	0.916291	0.957231
	544.74	1.20273	1.09669
	546.639	1.51461	1.23069
	548.537	1.19182	1.09171
	550.436	0.202176	0.44964
	552.335	-0.0876497	0.296057
	554.233	0.339089	0.582314
	556.132	0.872343	0.933993
	558.031	0.872258	0.933947
	559.929	0.452113	0.672394
	561.828	0.531625	0.729126
	563.726	0.509788	0.713994
	565.625	0.684447	0.827313
	567.524	0.392685	0.626646
	569.422	0.333302	0.577323
	571.321	0.575881	0.758868
	573.22	1.10558	1.05147
	575.118	1.33736	1.15644
	577.017	1.51964	1.23274
	578.915	1.16034	1.07719
	580.814	1.19652	1.09386
	582.713	0.424802	0.651769
	584.611	0.239099	0.488978
	586.51	-0.110149	0.331888
	588.408	0.381747	0.617856
	590.307	0.507354	0.712288
	592.206	0.829791	0.910928
	594.104	0.829329	0.910675
	596.003	0.919697	0.959008
	597.902	0.559069	0.747709
	599.8	0.656323	0.810138
	601.699	0.49798	0.705677
	603.597	0.426173	0.652819
	605.496	0.0980304	0.313098
	607.395	-0.135056	0.367499
	609.293	-0.537919	0.73343
	611.192	-0.267194	0.516908
	613.091	-0.0791272	0.281296
	614.989	0.226725	0.476157
	616.888	0.238804	0.488676
	618.786	-0.0434725	0.208501
	620.685	0.144507	0.380141
	622.584	0.103685	0.322002
	624.482	0.454051	0.673833
	626.381	0.561692	0.749461
	628.279	0.814965	0.902754
	630.178	0.714282	0.845152
	632.077	0.373871	0.61145
	633.975	0.618304	0.786323
	635.874	0.627372	0.792068
	637.773	0.992894	0.996441
	639.671	1.57557	1.25522
	641.57	2.19592	1.48186
	643.468	2.25295	1.50098
	645.367	2.6922	1.64079
	647.266	3.09691	1.75981
	649.164	3.5355	1.88029
	651.063	3.05707	1.74845
	652.962	2.49314	1.57897
	654.86	2.56922	1.60288
	656.759	3.12263	1.7671
	658.657	3.57089	1.88968
	660.556	3.57699	1.89129
	662.455	4.45205	2.10999
	664.353	5.96369	2.44207
	666.252	8.0591	2.83886
	668.15	11.4643	3.3859
	670.049	15.6826	3.96013
	671.948	20.1914	4.49349
	673.846	23.416	4.83901
	675.745	25.4748	5.04725
	677.644	26.5962	5.15715
	679.542	26.7564	5.17266
	681.441	26.4506	5.14302
	683.339	26.8641	5.18306
	685.238	29.0157	5.38663
	687.137	33.6335	5.79944
	689.035	40.5014	6.36407
	690.934	50.3602	7.09649
	692.833	64.2744	8.01713
	694.731	82.7171	9.09489
	696.63	105.44	10.2684
	698.528	130.224	11.4116
	700.427	150.398	12.2637
	702.326	162.21	12.7362
	704.224	161.969	12.7267
	706.123	153.444	12.3872
	708.021	139.013	11.7904
	709.92	121.303	11.0138
	711.819	102.537	10.126
	713.717	82.7599	9.09725
	715.616	63.807	7.98793
	717.515	47.2943	6.87708
	719.413	33.1828	5.76045
	721.312	24.1454	4.9138
	723.21	18.0817	4.25226
	725.109	13.6433	3.69369
	727.008	10.2486	3.20134
	728.906	7.88747	2.80846
	730.805	6.42387	2.53454
	732.704	5.66952	2.38107
	734.602	4.87772	2.20856
	736.501	4.35833	2.08766
	738.399	4.03609	2.009
	740.298	4.0844	2.02099
	742.197	3.537	1.88069
	744.095	3.1062	1.76244
	745.994	2.40155	1.54969
	747.892	1.53592	1.23932
	749.791	1.50911	1.22846
	751.69	1.43323	1.19718
	753.588	1.33683	1.15621
	755.487	1.3434	1.15905
	757.386	1.33027	1.15337
	759.284	1.62264	1.27383
	761.183	1.34692	1.16057
	763.081	1.04562	1.02256
	764.98	1.01435	1.00715
	766.879	1.42055	1.19187
	768.777	1.6498	1.28445
	770.676	1.19729	1.09421
	772.575	0.535596	0.731844
	774.473	0.312667	0.559167
	776.372	0.586053	0.765541
	778.27	0.633977	0.796226
	780.169	0.73091	0.854933
	782.068	0.196734	0.443547
	783.966	-0.24717	0.497162
	785.865	-0.159655	0.399569
	787.764	0.121158	0.348078
	789.662	0.226434	0.475851
	791.561	0.446677	0.668339
	793.459	0.620459	0.787692
	795.358	0.640686	0.800429
	797.257	0.752449	0.867438
	799.155	0.68114	0.825312
	801.054	0.821218	0.906211
	802.952	0.461162	0.679089
	804.851	0.147256	0.383739
	806.75	0.34352	0.586106
	808.648	-0.0597903	0.24452
	810.547	-0.401384	0.633549
	812.446	-0.602672	0.776319
	814.344	-0.433053	0.658068
	816.243	-0.00708412	0.0841672
	818.141	0.123098	0.350854
	820.04	0.327854	0.572585
	821.939	-0.040792	0.20197
	823.837	-0.116689	0.341598
	825.736	0.0325441	0.1804
	827.635	0.479022	0.692114
	829.533	0.492611	0.701862
	831.432	0.715027	0.845593
	833.33	0.40704	0.637997
	835.229	0.372311	0.610173
	837.128	0.030187	0.173744
	839.026	0.140432	0.374743
	840.925	0.0794193	0.281814
	842.823	0.436629	0.660779
	844.722	0.602272	0.776062
	846.621	0.757134	0.870135
	848.519	0.762152	0.873013
	850.418	0.948215	0.973763
	852.317	1.09779	1.04775
	854.215	0.984381	0.99216
	856.114	0.75301	0.867761
	858.012	0.709762	0.842474
	859.911	0.909903	0.953888
	861.81	0.933944	0.966408
	863.708	0.757568	0.870384
	865.607	0.319565	0.565301
	867.506	0.0340772	0.1846
	869.404	0.307086	0.554153
	871.303	0.642859	0.801785
	873.201	0.862831	0.928887
	875.1	0.686582	0.828603
	876.999	0.266012	0.515763
	878.897	-0.144056	0.379547
	880.796	-0.131359	0.362435
	882.694	0.11846	0.34418
	884.593	0.220644	0.469728
	886.492	0.0746637	0.273247
	888.39	-0.168915	0.410993
	890.289	-0.547073	0.739644
	892.188	-0.603736	0.777004
	894.086	-0.477544	0.691046
	895.985	0.110227	0.332004
	897.883	0.495648	0.704023
	899.782	0.992271	0.996128
	901.681	1.64382	1.28212
	903.579	2.38535	1.54446
	905.478	3.52632	1.87785
	907.377	5.29624	2.30136
	909.275	6.95872	2.63794
	911.174	9.66998	3.10966
	913.072	13.7696	3.71075
	914.971	19.455	4.41079
	916.87	27.6355	5.25695
	918.768	40.8653	6.3926
	920.667	57.6786	7.59464
	922.565	78.3503	8.85157
	924.464	96.8631	9.8419
	926.363	115.018	10.7246
	928.261	124.457	11.156
	930.16	130.517	11.4244
	932.059	132.746	11.5215
	933.957	139.714	11.8201
	935.856	153.311	12.3819
	937.754	177.149	13.3097
	939.653	211.96	14.5589
	941.552	257.915	16.0597
	943.45	329.693	18.1574
	945.349	435.641	20.872
	947.248	581.013	24.1042
	949.146	759.997	27.568
	951.045	967.288	31.1013
	952.943	1135.1	33.6912
	954.842	1252.91	35.3965
	956.741	1274.92	35.7061
	958.639	1249.52	35.3486
	960.538	1145.42	33.844
	962.436	1057.04	32.5122
	964.335	960.973	30.9996
	966.234	871.395	29.5194
	968.132	747.839	27.3466
	970.031	649.815	25.4915
	971.93	555.531	23.5697
	973.828	472.477	21.7365
	975.727	394.7	19.8671
	977.625	325.26	18.035
	979.524	263.231	16.2244
	981.423	211.652	14.5483
	983.321	168.642	12.9862
	985.22	132.764	11.5223
	987.119	103.248	10.1611
	989.017	79.559	8.91959
	990.916	61.92	7.86893
	992.814	47.7047	6.90686
	994.713	37.4562	6.12015
	996.612	29.8399	5.46259
	998.51	24.2698	4.92644
	1000.41	18.6355	4.31688
	1002.31	13.9412	3.73379
	1004.21	10.4201	3.22802
	1006.1	8.45758	2.90819
	1008	6.57926	2.56501
	1009.9	5.67403	2.38202
	1011.8	4.76969	2.18396
	1013.7	4.14329	2.03551
	1015.6	3.72168	1.92916
	1017.5	3.3475	1.82962
	1019.4	2.98888	1.72884
	1021.29	1.93176	1.38988
	1023.19	0.876087	0.935995
	1025.09	-0.283072	0.532045
	1026.99	-1.15673	1.07551
	1028.89	-1.83736	1.35549
	1030.79	-2.49729	1.58028
	1032.69	-2.94854	1.71713
	1034.58	-2.31883	1.52277
	1036.48	-1.96898	1.4032
	1038.38	-0.906732	0.952225
	1040.28	1.05932	1.02923
	1042.18	3.44143	1.85511
	1044.08	6.44968	2.53962
	1045.98	8.57019	2.92749
	1047.87	10.2037	3.19433
	1049.77	11.8477	3.44205
	1051.67	12.8178	3.5802
	1053.57	12.9072	3.59266
	1055.47	13.9808	3.73909
	1057.37	16.078	4.00974
	1059.27	18.687	4.32285
	1061.16	22.2426	4.71621
	1063.06	25.8207	5.08141
	1064.96	30.2973	5.5043
	1066.86	35.7354	5.97791
	1068.76	41.2815	6.42506
	1070.66	46.5038	6.81937
	1072.56	50.9347	7.13685
	1074.46	54.7275	7.3978
	1076.35	58.5922	7.65455
	1078.25	62.7429	7.92104
	1080.15	67.5949	8.22161
	1082.05	72.0527	8.48839
	1083.95	77.8908	8.82558
	1085.85	82.4706	9.08133
	1087.75	90.3809	9.50689
	1089.64	95.6947	9.78237
	1091.54	103.037	10.1507
	1093.44	108.366	10.4099
	1095.34	111.593	10.5637
	1097.24	115.561	10.75
	1099.14	115.897	10.7655
	1101.04	119.857	10.9479
	1102.93	120.907	10.9958
	1104.83	122.514	11.0686
	1106.73	125.079	11.1839
	1108.63	123.182	11.0988
	1110.53	125.614	11.2078
	1112.43	122.05	11.0476
	1114.33	118.023	10.8639
	1116.22	109.656	10.4717
	1118.12	105.284	10.2608
	1120.02	97.1018	9.85402
	1121.92	94.6252	9.72755
	1123.82	91.9343	9.58824
	1125.72	90.505	9.51341
	1127.62	89.9967	9.48666
	1129.51	85.8506	9.26556
	1131.41	82.4913	9.08247
	1133.31	76.1668	8.72736
	1135.21	68.7738	8.29299
	1137.11	60.8386	7.79991
	1139.01	49.6599	7.04697
	1140.91	40.5651	6.36907
	1142.81	31.3188	5.59632
	1144.7	23.6606	4.86422
	1146.6	16.7698	4.09509
	1148.5	11.5514	3.39874
	1150.4	7.76256	2.78614
	1152.3	5.73135	2.39402
	1154.2	4.7608	2.18193
	1156.1	3.9578	1.98942
	1157.99	3.41741	1.84862
	1159.89	2.65462	1.6293
	1161.79	2.06185	1.43591
	1163.69	1.02236	1.01112
	1165.59	0.119788	0.346104
	1167.49	-1.08544	1.04185
	1169.39	-1.56984	1.25293
	1171.28	-1.41806	1.19082
	1173.18	-1.27614	1.12967
	1175.08	-0.762521	0.873225
	1176.98	-0.12453	0.352888
	1178.88	0.126161	0.355191
	1180.78	1.12392	1.06015
	1182.68	2.08776	1.44491
	1184.57	3.58943	1.89458
	1186.47	4.50976	2.12362
	1188.37	5.66178	2.37945
	1190.27	6.86915	2.62091
	1192.17	7.86467	2.8044
	1194.07	8.60857	2.93404
	1195.97	7.9701	2.82314
	1197.87	9.03595	3.00599
	1199.76	8.57572	2.92843
	1201.66	9.63575	3.10415
	1203.56	10.2704	3.20475
	1205.46	11.6875	3.4187
	1207.36	15.0238	3.87606
	1209.26	18.5008	4.30126
	1211.16	22.8144	4.77644
	1213.05	27.1011	5.20587
	1214.95	30.0138	5.47848
	1216.85	31.3183	5.59628
	1218.75	29.3977	5.42197
	1220.65	27.4068	5.23515
	1222.55	22.6496	4.75916
	1224.45	19.3075	4.39403
	1226.34	15.421	3.92696
	1228.24	13.3456	3.65317
	1230.14	12.8499	3.58467
	1232.04	11.9583	3.45807
	1233.94	13.0508	3.61259
	1235.84	13.7462	3.70758
	1237.74	16.5648	4.06998
	1239.63	18.6004	4.31282
	1241.53	21.06	4.58912
	1243.43	24.6	4.95984
	1245.33	27.8844	5.28057
	1247.23	32.9624	5.74129
	1249.13	38.036	6.16733
	1251.03	45.1247	6.7175
	1252.93	54.0022	7.34862
	1254.82	63.5632	7.97265
	1256.72	79.1746	8.89801
	1258.62	91.8607	9.5844
	1260.52	112.406	10.6022
	1262.42	129.387	11.3748
	1264.32	142.653	11.9438
	1266.22	149.679	12.2343
	1268.11	151.518	12.3093
	1270.01	152.599	12.3531
	1271.91	148.251	12.1758
	1273.81	148.402	12.182
	1275.71	143.036	11.9598
	1277.61	140.257	11.843
	1279.51	137.285	11.7169
	1281.4	131.379	11.4621
	1283.3	131.827	11.4816
	1285.2	124.507	11.1583
	1287.1	128.187	11.322
	1289	125.318	11.1946
	1290.9	127.366	11.2857
	1292.8	130.567	11.4266
	1294.69	129.546	11.3818
	1296.59	137.598	11.7302
	1298.49	133.193	11.5409
	1300.39	138.865	11.7841
	1302.29	136.229	11.6717
	1304.19	138.691	11.7767
	1306.09	132.658	11.5177
	1307.99	131.666	11.4746
	1309.88	125.537	11.2043
	1311.78	120.13	10.9604
	1313.68	116.384	10.7881
	1315.58	109.15	10.4475
	1317.48	109.084	10.4443
	1319.38	105.809	10.2864
	1321.28	104.022	10.1991
	1323.17	101.152	10.0574
	1325.07	96.8222	9.83983
	1326.97	94.6132	9.72693
	1328.87	88.9187	9.42967
	1330.77	85.1147	9.22576
	1332.67	77.0924	8.78023
	1334.57	71.3895	8.44923
	1336.46	65.4091	8.08759
	1338.36	60.6235	7.78611
	1340.26	56.9672	7.54766
	1342.16	54.0949	7.35493
	1344.06	53.6685	7.32588
	1345.96	52.9025	7.27341
	1347.86	52.297	7.23167
	1349.75	49.3943	7.02811
	1351.65	44.8943	6.70032
	1353.55	39.2559	6.26545
	1355.45	32.7913	5.72637
	1357.35	26.5745	5.15505
	1359.25	20.5429	4.53243
	1361.15	15.5301	3.94082
	1363.05	10.5236	3.24401
	1364.94	6.51575	2.5526
	1366.84	3.26637	1.80731
	1368.74	0.826331	0.909028
	1370.64	-0.975069	0.987456
	1372.54	-2.14073	1.46312
	1374.44	-2.79159	1.67081
	1376.34	-2.70634	1.6451
	1378.23	-2.14131	1.46332
	1380.13	-1.58869	1.26043
	1382.03	-0.751484	0.866881
	1383.93	0.665374	0.815705
	1385.83	2.60135	1.61287
	1387.73	4.48515	2.11782
	1389.63	6.13947	2.4778
	1391.52	7.16309	2.6764
	1393.42	7.93771	2.81739
	1395.32	8.6628	2.94326
	1397.22	10.5071	3.24146
	1399.12	11.5244	3.39475
	1401.02	12.5691	3.5453
	1402.92	13.2871	3.64515
	1404.81	13.8052	3.71554
	1406.71	13.9777	3.73868
	1408.61	13.2868	3.6451
	1410.51	12.8572	3.58569
	1412.41	11.4359	3.38171
	1414.31	10.3841	3.22244
	1416.21	9.18545	3.03075
	1418.11	8.33106	2.88636
	1420	7.506	2.73971
	1421.9	6.42978	2.5357
	1423.8	5.29106	2.30023
	1425.7	4.19545	2.04828
	1427.6	3.34065	1.82775
	1429.5	2.67688	1.63612
	1431.4	2.46518	1.57009
	1433.29	1.84982	1.36008
	1435.19	1.2707	1.12725
	1437.09	0.840781	0.916941
	1438.99	0.40016	0.632582
	1440.89	0.184623	0.429678
	1442.79	0.0251577	0.158612
	1444.69	0.190771	0.436773
	1446.58	0.0465699	0.215801
	1448.48	-0.307092	0.554158
	1450.38	-0.480842	0.693428
	1452.28	-0.110349	0.332188
	1454.18	-0.229853	0.47943
	1456.08	-0.529892	0.727937
	1457.98	-0.600354	0.774825
	1459.87	-0.704819	0.839535
	1461.77	-0.587933	0.766768
	1463.67	-0.628161	0.792566
	1465.57	-0.22941	0.478967
	1467.47	0.011314	0.106367
	1469.37	-0.130306	0.360979
	1471.27	-0.307318	0.554362
	1473.17	-0.0524585	0.229038
	1475.06	-0.18357	0.42845
	1476.96	-0.607504	0.779426
	1478.86	-0.66591	0.816033
	1480.76	-0.1594	0.399249
	1482.66	0.593229	0.770214
	1484.56	0.572543	0.756666
	1486.46	0.41821	0.646692
	1488.35	0.290575	0.53905
	1490.25	0.331088	0.575403
	1492.15	0.489195	0.699425
	1494.05	0.530331	0.728239
	1495.95	1.0954	1.04661
	1497.85	1.10503	1.0512
	1499.75	1.01218	1.00607
	1501.64	0.987631	0.993796
	1503.54	0.887279	0.941955
	1505.44	0.750123	0.866096
	1507.34	1.05665	1.02793
	1509.24	0.894701	0.945887
	1511.14	0.494622	0.703293
	1513.04	0.101745	0.318976
	1514.93	-0.12268	0.350257
	1516.83	0.324892	0.569993
	1518.73	0.712706	0.844219
	1520.63	0.811505	0.900836
	1522.53	1.05045	1.02492
	1524.43	0.940581	0.969836
	1526.33	0.392953	0.62686
	1528.23	0.0320209	0.178944
	1530.12	0.491667	0.701189
	1532.02	0.571777	0.756159
	1533.92	0.656074	0.809984
	1535.82	0.327476	0.572255
	1537.72	0.22727	0.476729
	1539.62	0.238849	0.488721
	1541.52	-0.373665	0.611281
	1543.41	-0.0328736	0.181311
	1545.31	0.806085	0.897822
	1547.21	1.04932	1.02436
	1549.11	0.743851	0.862468
	1551.01	0.322029	0.567476
	1552.91	0.000382273	0.0195518
	1554.81	0.0316337	0.177859
	1556.7	0.34138	0.584277
	1558.6	0.193803	0.44023
	1560.5	0.250185	0.500185
	1562.4	0.655755	0.809787
	1564.3	0.927547	0.963092
	1566.2	0.471277	0.686496
	1568.1	0.583747	0.764033
	1569.99	0.944749	0.971982
	1571.89	1.14179	1.06855
	1573.79	1.55612	1.24745
	1575.69	2.00548	1.41615
	1577.59	2.22023	1.49004
	1579.49	2.06632	1.43747
	1581.39	2.54879	1.59649
	1583.29	2.83554	1.68391
	1585.18	3.03722	1.74276
	1587.08	3.44746	1.85674
	1588.98	4.04964	2.01237
	1590.88	4.80409	2.19182
	1592.78	5.67474	2.38217
	1594.68	6.57771	2.56471
	1596.58	7.5694	2.75125
	1598.47	8.05417	2.83799
	1600.37	8.41846	2.90146
	1602.27	9.23548	3.03899
	1604.17	10.2027	3.19417
	1606.07	11.3305	3.36607
	1607.97	12.3831	3.51896
	1609.87	14.3364	3.78635
	1611.76	17.164	4.14294
	1613.66	21.5307	4.64012
	1615.56	27.9586	5.28759
	1617.46	38.7529	6.22518
	1619.36	52.6501	7.25604
	1621.26	69.1061	8.31301
	1623.16	81.0781	9.00434
	1625.05	85.9529	9.27108
	1626.95	80.9829	8.99905
	1628.85	68.9742	8.30507
	1630.75	55.0353	7.41858
	1632.65	43.0454	6.5609
	1634.55	35.0163	5.91746
	1636.45	30.37	5.51089
	1638.34	28.6161	5.3494
	1640.24	28.2374	5.31389
	1642.14	28.9315	5.3788
