Generated file C:/Users/didvk/OneDrive - University of Florida/UF_Isaiah_06-16-2020-Tue/Analysis/Re0.1Mo0.9B2/Re0.1Mo0.9B2_HPXRD_run2_300_20220710 - Copy/mask&dat&fxye_4position/12_ReMoB2_60p0GPa_545psi_P1_C4_D1w_089.fxye using DIOPTAS
# == pyFAI calibration ==
# Distance Sample to Detector: 0.2103851508954585 m
# PONI: 8.889e-02, 8.665e-02 m
# Rotations: 0.008634 -0.000915 0.000000 rad
# 
# == Fit2d calibration ==
# Distance Sample-beamCenter: 210.393 mm
# Center: x=493.236, y=515.685 pix
# Tilt: 0.497 deg  TiltPlanRot: -173.953 deg
# 
# Detector Detector	 Spline= None	 PixelSize= 1.720e-04, 1.720e-04 m
#    Detector has a mask: False 
#    Detector has a dark current: False 
#    detector has a flat field: False 
# 
# Wavelength: 4.133e-11 m
# Mask applied: None
# Dark current applied: None
# Flat field applied: None
# Polarization factor: None
# Normalization factor: None
BANK	1	1129	1129 CONS	282.731	1.89862 0.4133 0.0 FXYE
	282.731	0.576884	0.759529
	284.629	0.673908	0.820919
	286.528	0.786405	0.886795
	288.427	0.195879	0.442582
	290.325	-0.111832	0.334412
	292.224	0.134683	0.366992
	294.122	0.864217	0.929633
	296.021	1.45764	1.20733
	297.92	1.52194	1.23367
	299.818	2.08121	1.44264
	301.717	1.63819	1.27992
	303.616	1.43716	1.19882
	305.514	1.47044	1.21262
	307.413	1.53184	1.23768
	309.311	2.05333	1.43294
	311.21	1.46953	1.21224
	313.109	1.42715	1.19464
	315.007	1.34386	1.15925
	316.906	1.36546	1.16853
	318.805	0.72842	0.853475
	320.703	1.25879	1.12196
	322.602	1.38358	1.17625
	324.5	1.77016	1.33047
	326.399	2.10257	1.45002
	328.298	2.86518	1.69268
	330.196	3.15306	1.77569
	332.095	3.27477	1.80963
	333.993	2.81588	1.67806
	335.892	3.45959	1.86
	337.791	3.90846	1.97698
	339.689	5.50547	2.34637
	341.588	7.36967	2.71471
	343.487	10.0833	3.17543
	345.385	13.8664	3.72377
	347.284	20.0041	4.47259
	349.182	27.5204	5.24599
	351.081	34.334	5.85952
	352.98	36.6277	6.05208
	354.878	33.6501	5.80087
	356.777	26.0336	5.10232
	358.676	18.1511	4.26041
	360.574	11.5507	3.39863
	362.473	7.49574	2.73784
	364.371	5.05178	2.24762
	366.27	3.47757	1.86482
	368.169	2.98487	1.72768
	370.067	2.2008	1.48351
	371.966	2.0033	1.41538
	373.864	1.75712	1.32556
	375.763	2.17095	1.47342
	377.662	2.0743	1.44024
	379.56	1.97325	1.40472
	381.459	1.59339	1.2623
	383.358	1.1191	1.05788
	385.256	1.02861	1.0142
	387.155	1.08504	1.04165
	389.053	1.42428	1.19343
	390.952	1.29933	1.13988
	392.851	1.15939	1.07675
	394.749	0.802482	0.895814
	396.648	1.05697	1.02809
	398.547	0.713821	0.844879
	400.445	0.27503	0.524433
	402.344	0.443421	0.665898
	404.242	0.523209	0.723332
	406.141	0.857594	0.926064
	408.04	0.973936	0.986882
	409.938	1.3182	1.14813
	411.837	1.16614	1.07988
	413.735	0.607617	0.779498
	415.634	0.434177	0.658921
	417.533	0.689336	0.830263
	419.431	0.811664	0.900924
	421.33	0.703824	0.838942
	423.229	1.03076	1.01527
	425.127	1.07976	1.03911
	427.026	0.897458	0.947343
	428.924	0.503669	0.709696
	430.823	0.603069	0.776575
	432.722	0.478858	0.691996
	434.62	0.415196	0.644357
	436.519	0.241672	0.491602
	438.418	0.504541	0.710311
	440.316	0.286312	0.535081
	442.215	0.15714	0.396409
	444.113	0.14357	0.378906
	446.012	0.257312	0.50726
	447.911	-0.21896	0.467932
	449.809	-0.390445	0.624856
	451.708	-0.0278216	0.166798
	453.606	0.0481049	0.219328
	455.505	0.219569	0.468582
	457.404	0.17674	0.420405
	459.302	0.702091	0.837909
	461.201	0.503825	0.709807
	463.1	0.218328	0.467256
	464.998	0.147187	0.38365
	466.897	0.389769	0.624315
	468.795	0.987348	0.993654
	470.694	0.838468	0.915679
	472.593	1.16731	1.08042
	474.491	0.863126	0.929046
	476.39	1.29554	1.13822
	478.289	1.11295	1.05496
	480.187	1.09257	1.04526
	482.086	1.08706	1.04262
	483.984	0.884099	0.940265
	485.883	0.926918	0.962766
	487.782	0.694001	0.833067
	489.68	0.937532	0.968263
	491.579	1.11749	1.05711
	493.478	1.02841	1.0141
	495.376	1.1759	1.08439
	497.275	0.378395	0.615138
	499.173	0.403623	0.635314
	501.072	0.254223	0.504206
	502.971	1.68025	1.29624
	504.869	2.02901	1.42443
	506.768	1.8149	1.34718
	508.666	0.715411	0.84582
	510.565	0.140818	0.375257
	512.464	-0.110099	0.331812
	514.362	0.199017	0.446113
	516.261	-0.146224	0.382392
	518.16	-0.213073	0.461599
	520.058	-0.250855	0.500854
	521.957	-0.174988	0.418316
	523.855	0.398116	0.630964
	525.754	0.499886	0.707026
	527.653	0.764335	0.874263
	529.551	0.884242	0.940341
	531.45	0.414646	0.64393
	533.349	0.362136	0.601778
	535.247	0.405874	0.637082
	537.146	1.06448	1.03174
	539.044	1.0843	1.0413
	540.943	1.05159	1.02547
	542.842	0.938297	0.968657
	544.74	0.988185	0.994075
	546.639	0.455266	0.674734
	548.537	0.651068	0.806888
	550.436	0.349612	0.59128
	552.335	0.209715	0.457946
	554.233	-0.00616888	0.0785422
	556.132	1.0078	1.00389
	558.031	2.02986	1.42473
	559.929	2.44834	1.56472
	561.828	1.81852	1.34853
	563.726	0.800145	0.894508
	565.625	0.504871	0.710543
	567.524	0.799481	0.894137
	569.422	1.91865	1.38515
	571.321	2.15797	1.469
	573.22	1.84678	1.35896
	575.118	1.2524	1.11911
	577.017	1.13393	1.06486
	578.915	1.25703	1.12117
	580.814	1.41802	1.19081
	582.713	1.22891	1.10856
	584.611	1.59088	1.2613
	586.51	1.42485	1.19367
	588.408	1.39449	1.18088
	590.307	0.991715	0.995849
	592.206	0.550922	0.742241
	594.104	0.505632	0.711078
	596.003	-0.211985	0.460419
	597.902	0.206945	0.454912
	599.8	0.491406	0.701003
	601.699	1.12122	1.05887
	603.597	1.39167	1.17969
	605.496	1.69094	1.30036
	607.395	1.22699	1.1077
	609.293	0.771901	0.878579
	611.192	0.258097	0.508033
	613.091	-0.149958	0.387244
	614.989	-0.160615	0.400768
	616.888	-0.507374	0.712302
	618.786	-0.53401	0.73076
	620.685	-0.0110125	0.104941
	622.584	0.774978	0.880329
	624.482	1.21528	1.1024
	626.381	0.988929	0.994449
	628.279	1.03198	1.01587
	630.178	1.35111	1.16237
	632.077	1.64178	1.28132
	633.975	1.88375	1.3725
	635.874	1.69658	1.30253
	637.773	1.85073	1.36042
	639.671	2.39542	1.54772
	641.57	3.48308	1.8663
	643.468	4.54517	2.13194
	645.367	5.383	2.32013
	647.266	5.888	2.42652
	649.164	5.1895	2.27805
	651.063	4.89339	2.2121
	652.962	3.92683	1.98162
	654.86	3.38183	1.83897
	656.759	3.17502	1.78186
	658.657	3.89251	1.97294
	660.556	4.61249	2.14767
	662.455	5.22198	2.28517
	664.353	6.31986	2.51393
	666.252	8.0396	2.83542
	668.15	10.5763	3.25212
	670.049	13.9485	3.73476
	671.948	18.4275	4.29272
	673.846	23.6806	4.86628
	675.745	28.9683	5.38222
	677.644	33.5247	5.79005
	679.542	36.7544	6.06254
	681.441	38.0047	6.16479
	683.339	37.5087	6.12444
	685.238	36.3341	6.02778
	687.137	36.636	6.05277
	689.035	38.3494	6.19269
	690.934	42.5765	6.52507
	692.833	50.2089	7.08582
	694.731	63.2418	7.95247
	696.63	83.3709	9.13077
	698.528	110.898	10.5308
	700.427	146.721	12.1128
	702.326	184.584	13.5862
	704.224	216.83	14.7252
	706.123	236.366	15.3742
	708.021	232.278	15.2407
	709.92	209.386	14.4702
	711.819	173.483	13.1713
	713.717	134.446	11.5951
	715.616	100.185	10.0092
	717.515	72.9883	8.54332
	719.413	52.5246	7.24739
	721.312	38.5885	6.21197
	723.21	28.5677	5.34488
	725.109	21.3293	4.61837
	727.008	16.4641	4.0576
	728.906	13.5614	3.68257
	730.805	11.0049	3.31736
	732.704	8.96074	2.99345
	734.602	7.59827	2.7565
	736.501	6.74168	2.59647
	738.399	5.80332	2.40901
	740.298	5.06579	2.25073
	742.197	4.17094	2.04229
	744.095	3.50677	1.87264
	745.994	2.67359	1.63511
	747.892	2.03501	1.42654
	749.791	1.84702	1.35905
	751.69	1.72253	1.31245
	753.588	1.83546	1.35479
	755.487	1.84124	1.35692
	757.386	1.34799	1.16103
	759.284	0.439362	0.662844
	761.183	0.167713	0.409528
	763.081	0.0986473	0.314082
	764.98	0.557448	0.746624
	766.879	0.639239	0.799524
	768.777	0.689847	0.83057
	770.676	0.468911	0.684771
	772.575	0.0937046	0.306112
	774.473	0.42819	0.654363
	776.372	1.48509	1.21864
	778.27	1.25166	1.11878
	780.169	0.750171	0.866124
	782.068	-0.146453	0.382691
	783.966	-0.115938	0.340496
	785.865	0.428396	0.65452
	787.764	0.699096	0.83612
	789.662	0.750468	0.866295
	791.561	0.381902	0.617982
	793.459	0.710426	0.842868
	795.358	0.301831	0.549391
	797.257	-0.0981788	0.313335
	799.155	-0.367671	0.606359
	801.054	0.0149903	0.122435
	802.952	0.239987	0.489884
	804.851	-0.104407	0.323121
	806.75	-0.386748	0.621891
	808.648	-0.197929	0.444892
	810.547	-0.0510884	0.226027
	812.446	0.0754169	0.274621
	814.344	0.510793	0.714698
	816.243	0.503914	0.709869
	818.141	0.176063	0.419599
	820.04	-0.242219	0.492158
	821.939	-0.255709	0.505676
	823.837	-0.0587653	0.242416
	825.736	0.0868456	0.294696
	827.635	0.235959	0.485756
	829.533	0.281819	0.530866
	831.432	0.342357	0.585113
	833.33	0.4354	0.659848
	835.229	0.452415	0.672618
	837.128	0.540046	0.734879
	839.026	0.45339	0.673342
	840.925	0.406499	0.637573
	842.823	0.441117	0.664166
	844.722	0.909063	0.953448
	846.621	1.20467	1.09758
	848.519	1.38823	1.17823
	850.418	1.63698	1.27945
	852.317	1.53693	1.23973
	854.215	1.17292	1.08302
	856.114	1.09899	1.04833
	858.012	0.7646	0.874414
	859.911	0.859648	0.927172
	861.81	0.934724	0.966811
	863.708	1.04266	1.02111
	865.607	0.59333	0.770279
	867.506	0.246186	0.496171
	869.404	-0.418342	0.646793
	871.303	-0.33436	0.578239
	873.201	-0.302346	0.54986
	875.1	-0.41027	0.640523
	876.999	-0.526952	0.725915
	878.897	-0.916489	0.957334
	880.796	-0.992412	0.996199
	882.694	-1.27426	1.12883
	884.593	-0.982524	0.991223
	886.492	-0.645539	0.803454
	888.39	-0.140799	0.375232
	890.289	0.0207571	0.144073
	892.188	-0.0399053	0.199763
	894.086	-0.108692	0.329685
	895.985	0.0554537	0.235486
	897.883	0.809108	0.899505
	899.782	1.47655	1.21513
	901.681	2.7595	1.66117
	903.579	3.76141	1.93943
	905.478	4.81412	2.19411
	907.377	6.44095	2.5379
	909.275	8.42344	2.90232
	911.174	11.7055	3.42133
	913.072	16.0876	4.01094
	914.971	22.3845	4.73123
	916.87	30.2418	5.49925
	918.768	42.5386	6.52217
	920.667	61.1084	7.81719
	922.565	87.9199	9.37656
	924.464	123.576	11.1165
	926.363	172.542	13.1355
	928.261	232.612	15.2516
	930.16	306.376	17.5036
	932.059	390.967	19.7729
	933.957	474.997	21.7944
	935.856	537.334	23.1805
	937.754	572.011	23.9167
	939.653	569.488	23.864
	941.552	538.264	23.2005
	943.45	489.499	22.1246
	945.349	449.678	21.2056
	947.248	452.358	21.2687
	949.146	495.642	22.263
	951.045	585.12	24.1892
	952.943	705.835	26.5676
	954.842	843.814	29.0485
	956.741	981.548	31.3297
	958.639	1078.09	32.8343
	960.538	1131.64	33.6398
	962.436	1146.39	33.8584
	964.335	1136.15	33.7068
	966.234	1123.68	33.5213
	968.132	1080.82	32.8758
	970.031	1003.72	31.6815
	971.93	885.349	29.7548
	973.828	758.931	27.5487
	975.727	646.306	25.4225
	977.625	542.833	23.2988
	979.524	450.954	21.2357
	981.423	370.74	19.2546
	983.321	304.051	17.4371
	985.22	250.18	15.8171
	987.119	206.482	14.3695
	989.017	172.637	13.1392
	990.916	143.376	11.974
	992.814	118.227	10.8732
	994.713	95.9998	9.79795
	996.612	77.6578	8.81236
	998.51	61.7294	7.85681
	1000.41	49.7882	7.05608
	1002.31	39.0297	6.24738
	1004.21	30.159	5.49172
	1006.1	23.3728	4.83454
	1008	17.4772	4.18058
	1009.9	13.5565	3.68192
	1011.8	9.74984	3.12247
	1013.7	6.90499	2.62774
	1015.6	4.82673	2.19698
	1017.5	3.05208	1.74702
	1019.4	2.05576	1.43379
	1021.29	0.940809	0.969953
	1023.19	0.302607	0.550098
	1025.09	-0.244162	0.494127
	1026.99	-1.06244	1.03075
	1028.89	-1.21652	1.10296
	1030.79	-1.43881	1.1995
	1032.69	-1.2597	1.12236
	1034.58	-1.31091	1.14495
	1036.48	-1.237	1.11221
	1038.38	-1.46753	1.21142
	1040.28	-1.97345	1.40479
	1042.18	-1.9228	1.38665
	1044.08	-1.68288	1.29726
	1045.98	-1.32552	1.15131
	1047.87	-1.52017	1.23295
	1049.77	-0.386416	0.621624
	1051.67	1.48362	1.21804
	1053.57	3.61659	1.90173
	1055.47	5.60517	2.36752
	1057.37	8.33948	2.88782
	1059.27	10.6589	3.2648
	1061.16	12.2902	3.50574
	1063.06	13.1486	3.6261
	1064.96	13.6765	3.69817
	1066.86	14.364	3.78999
	1068.76	15.692	3.96131
	1070.66	17.2585	4.15434
	1072.56	19.8967	4.46057
	1074.46	22.6463	4.75881
	1076.35	26.6127	5.15875
	1078.25	30.1693	5.49266
	1080.15	33.9631	5.82778
	1082.05	38.4835	6.20351
	1083.95	43.5424	6.59867
	1085.85	47.7862	6.91276
	1087.75	52.6576	7.25656
	1089.64	58.2342	7.63113
	1091.54	62.6568	7.9156
	1093.44	65.7462	8.1084
	1095.34	69.5192	8.33782
	1097.24	74.271	8.61806
	1099.14	77.6352	8.81109
	1101.04	82.853	9.10236
	1102.93	87.3718	9.34729
	1104.83	92.7067	9.62843
	1106.73	97.647	9.88165
	1108.63	100.941	10.047
	1110.53	104.897	10.2419
	1112.43	106.006	10.2959
	1114.33	105.631	10.2777
	1116.22	103.288	10.1631
	1118.12	98.8786	9.94377
	1120.02	93.4495	9.66693
	1121.92	88.6942	9.41776
	1123.82	85.0372	9.22156
	1125.72	82.7426	9.09629
	1127.62	82.124	9.06223
	1129.51	81.6209	9.03443
	1131.41	83.2055	9.12171
	1133.31	84.0214	9.16632
	1135.21	84.7319	9.20499
	1137.11	84.2786	9.18034
	1139.01	82.1183	9.06192
	1140.91	79.3885	8.91003
	1142.81	73.6784	8.58361
	1144.7	65.4543	8.09039
	1146.6	55.1662	7.42739
	1148.5	45.2883	6.72966
	1150.4	36.3455	6.02872
	1152.3	28.9512	5.38063
	1154.2	22.6114	4.75514
	1156.1	17.745	4.21248
	1157.99	14.4227	3.79773
	1159.89	11.7462	3.42728
	1161.79	9.9841	3.15976
	1163.69	8.46435	2.90936
	1165.59	7.63813	2.76372
	1167.49	6.04465	2.45859
	1169.39	4.04303	2.01073
	1171.28	1.77158	1.33101
	1173.18	-0.0228026	0.151005
	1175.08	-0.262274	0.512127
	1176.98	-0.10615	0.325807
	1178.88	-0.349457	0.591149
	1180.78	-0.413643	0.643151
	1182.68	-0.414052	0.643469
	1184.57	0.0142308	0.119293
	1186.47	-0.0779211	0.279143
	1188.37	0.319537	0.565276
	1190.27	0.52529	0.724769
	1192.17	1.50325	1.22607
	1194.07	2.99772	1.73139
	1195.97	3.98149	1.99537
	1197.87	6.70922	2.59022
	1199.76	8.32194	2.88478
	1201.66	11.6761	3.41703
	1203.56	14.788	3.84551
	1205.46	19.9772	4.46959
	1207.36	26.7014	5.16734
	1209.26	33.4212	5.78111
	1211.16	43.2823	6.57893
	1213.05	52.024	7.21277
	1214.95	64.7508	8.04679
	1216.85	78.1893	8.84247
	1218.75	89.13	9.44087
	1220.65	98.4402	9.9217
	1222.55	103.066	10.1521
	1224.45	100.675	10.0337
	1226.34	88.6765	9.41682
	1228.24	74.9559	8.65771
	1230.14	57.6047	7.58977
	1232.04	44.7745	6.69137
	1233.94	33.3819	5.77771
	1235.84	26.577	5.15529
	1237.74	22.2226	4.71409
	1239.63	19.5565	4.42228
	1241.53	18.3818	4.2874
	1243.43	18.0497	4.2485
	1245.33	18.5598	4.30811
	1247.23	19.2003	4.38181
	1249.13	19.9449	4.46597
	1251.03	21.2648	4.61138
	1252.93	23.2504	4.82186
	1254.82	25.9356	5.0927
	1256.72	28.7379	5.36078
	1258.62	32.3415	5.68696
	1260.52	37.5977	6.1317
	1262.42	44.3103	6.6566
	1264.32	51.8922	7.20362
	1266.22	59.066	7.68544
	1268.11	68.651	8.28559
	1270.01	78.2085	8.84356
	1271.91	88.2766	9.39557
	1273.81	95.4865	9.77172
	1275.71	100.423	10.0211
	1277.61	104.154	10.2056
	1279.51	106.673	10.3282
	1281.4	108.146	10.3993
	1283.3	108.116	10.3979
	1285.2	106.754	10.3322
	1287.1	107.163	10.352
	1289	105.9	10.2908
	1290.9	104.723	10.2334
	1292.8	103.699	10.1833
	1294.69	102.852	10.1416
	1296.59	104.33	10.2142
	1298.49	103.432	10.1702
	1300.39	105.165	10.255
	1302.29	105.488	10.2708
	1304.19	105.603	10.2763
	1306.09	107.211	10.3543
	1307.99	107.447	10.3657
	1309.88	110.425	10.5084
	1311.78	111.928	10.5796
	1313.68	114.045	10.6792
	1315.58	114.856	10.7171
	1317.48	114.348	10.6934
	1319.38	112.88	10.6245
	1321.28	109.639	10.4709
	1323.17	108.339	10.4086
	1325.07	103.065	10.1521
	1326.97	100.363	10.0181
	1328.87	95.8533	9.79047
	1330.77	91.0203	9.54046
	1332.67	84.716	9.20413
	1334.57	78.2846	8.84786
	1336.46	72.6289	8.52226
	1338.36	66.9775	8.18398
	1340.26	62.0026	7.87417
	1342.16	57.4635	7.58047
	1344.06	53.5372	7.31691
	1345.96	49.9516	7.06764
	1347.86	46.9855	6.8546
	1349.75	44.3437	6.6591
	1351.65	41.9514	6.47699
	1353.55	39.8203	6.31033
	1355.45	37.5387	6.12689
	1357.35	35.1991	5.93288
	1359.25	33.2184	5.76354
	1361.15	30.522	5.52467
	1363.05	27.1741	5.21288
	1364.94	22.8138	4.77638
	1366.84	19.0351	4.36292
	1368.74	14.4872	3.8062
	1370.64	10.0786	3.17467
	1372.54	5.91896	2.43289
	1374.44	3.10534	1.7622
	1376.34	1.13489	1.06531
	1378.23	-0.623148	0.789397
	1380.13	-1.68146	1.29671
	1382.03	-2.3375	1.52889
	1383.93	-2.17278	1.47404
	1385.83	-1.62966	1.27658
	1387.73	-0.665299	0.815659
	1389.63	0.264055	0.513863
	1391.52	1.60458	1.26672
	1393.42	2.7296	1.65215
	1395.32	3.76554	1.9405
	1397.22	5.41417	2.32684
	1399.12	7.12685	2.66962
	1401.02	8.73743	2.95591
	1402.92	10.2349	3.1992
	1404.81	11.9015	3.44986
	1406.71	14.2555	3.77564
	1408.61	16.7765	4.09591
	1410.51	20.394	4.51597
	1412.41	22.4963	4.74303
	1414.31	23.9394	4.8928
	1416.21	23.0294	4.79889
	1418.11	20.8913	4.5707
	1420	17.6859	4.20546
	1421.9	14.2159	3.77039
	1423.8	11.3458	3.36835
	1425.7	8.76864	2.96119
	1427.6	7.19157	2.68171
	1429.5	5.9657	2.44248
	1431.4	5.07352	2.25245
	1433.29	4.38975	2.09517
	1435.19	3.23328	1.79813
	1437.09	2.38838	1.54544
	1438.99	1.29157	1.13647
	1440.89	0.799697	0.894258
	1442.79	0.351234	0.59265
	1444.69	0.073491	0.271092
	1446.58	0.0526138	0.229377
	1448.48	-0.116413	0.341194
	1450.38	-0.290596	0.539069
	1452.28	-0.50969	0.713926
	1454.18	-0.216784	0.465601
	1456.08	-0.217678	0.466559
	1457.98	-0.0177386	0.133186
	1459.87	-0.221819	0.470977
	1461.77	0.0664964	0.257869
	1463.67	-0.437071	0.661114
	1465.57	-0.323381	0.568666
	1467.47	-0.615436	0.784498
	1469.37	-0.585865	0.765418
	1471.27	-0.668032	0.817332
	1473.17	-0.651648	0.807247
	1475.06	-0.590223	0.76826
	1476.96	-0.595503	0.771689
	1478.86	-0.175485	0.418909
	1480.76	0.164465	0.405543
	1482.66	0.481406	0.693834
	1484.56	0.210757	0.459083
	1486.46	0.232759	0.482451
	1488.35	-0.0832729	0.28857
	1490.25	-0.126601	0.355811
	1492.15	-0.199458	0.446608
	1494.05	0.0590509	0.243004
	1495.95	0.10367	0.321979
	1497.85	0.0549373	0.234387
	1499.75	-0.0189572	0.137685
	1501.64	0.0893419	0.298901
	1503.54	0.291844	0.540226
	1505.44	0.549208	0.741086
	1507.34	1.21748	1.10339
	1509.24	1.6442	1.28226
	1511.14	1.58412	1.25862
	1513.04	1.43965	1.19985
	1514.93	0.77429	0.879938
	1516.83	0.658038	0.811196
	1518.73	1.25761	1.12143
	1520.63	1.16236	1.07813
	1522.53	0.951934	0.975671
	1524.43	0.200043	0.447262
	1526.33	0.124139	0.352333
	1528.23	0.0601871	0.245331
	1530.12	0.311457	0.558083
	1532.02	0.419134	0.647406
	1533.92	0.244906	0.49488
	1535.82	0.314402	0.560716
	1537.72	0.117357	0.342575
	1539.62	0.472567	0.687435
	1541.52	0.611754	0.782147
	1543.41	0.556904	0.74626
	1545.31	0.610272	0.781199
	1547.21	0.65567	0.809735
	1549.11	0.460042	0.678264
	1551.01	-0.136808	0.369876
	1552.91	-0.52995	0.727977
	1554.81	-0.553415	0.743919
	1556.7	-0.0028846	0.0537085
	1558.6	0.0958366	0.309575
	1560.5	0.727739	0.853076
	1562.4	0.688767	0.82992
	1564.3	0.937551	0.968272
	1566.2	1.14212	1.0687
	1568.1	1.22029	1.10467
	1569.99	1.1291	1.06259
	1571.89	0.660434	0.812671
	1573.79	0.636171	0.797603
	1575.69	1.24989	1.11798
	1577.59	1.69011	1.30004
	1579.49	2.01613	1.4199
	1581.39	1.73973	1.31899
	1583.29	1.73713	1.318
	1585.18	1.94513	1.39468
	1587.08	2.4991	1.58085
	1588.98	3.13866	1.77163
	1590.88	3.6463	1.90953
	1592.78	3.7693	1.94147
	1594.68	3.89909	1.97461
	1596.58	4.39169	2.09564
	1598.47	5.04767	2.2467
	1600.37	5.72187	2.39204
	1602.27	6.28606	2.5072
	1604.17	7.12358	2.669
	1606.07	8.06452	2.83981
	1607.97	8.62095	2.93614
	1609.87	8.95781	2.99296
	1611.76	9.57841	3.0949
	1613.66	9.86188	3.14036
	1615.56	10.653	3.26389
	1617.46	11.013	3.31859
	1619.36	11.6749	3.41685
	1621.26	12.506	3.53638
	1623.16	13.8648	3.72354
	1625.05	15.4416	3.92959
	1626.95	17.043	4.12832
	1628.85	18.6425	4.3177
	1630.75	19.6894	4.43727
	1632.65	20.8047	4.56121
	1634.55	21.5386	4.64097
	1636.45	21.083	4.59162
	1638.34	20.2276	4.49751
	1640.24	19.5256	4.41878
	1642.14	19.4357	4.40859
	1644.04	19.7618	4.44543
