Generated file C:/Users/didvk/OneDrive - University of Florida/UF_Isaiah_06-16-2020-Tue/Analysis/Re0.1Mo0.9B2/Re0.1Mo0.9B2_HPXRD_run2_300_20220710 - Copy/mask&dat&fxye_4position/13_ReMoB2_62p0GPa_570psi_P1_C4_D1w_095.fxye using DIOPTAS
# == pyFAI calibration ==
# Distance Sample to Detector: 0.2103851508954585 m
# PONI: 8.889e-02, 8.665e-02 m
# Rotations: 0.008634 -0.000915 0.000000 rad
# 
# == Fit2d calibration ==
# Distance Sample-beamCenter: 210.393 mm
# Center: x=493.236, y=515.685 pix
# Tilt: 0.497 deg  TiltPlanRot: -173.953 deg
# 
# Detector Detector	 Spline= None	 PixelSize= 1.720e-04, 1.720e-04 m
#    Detector has a mask: False 
#    Detector has a dark current: False 
#    detector has a flat field: False 
# 
# Wavelength: 4.133e-11 m
# Mask applied: None
# Dark current applied: None
# Flat field applied: None
# Polarization factor: None
# Normalization factor: None
BANK	1	1129	1129 CONS	282.731	1.89862 0.4133 0.0 FXYE
	282.731	0.53628	0.732311
	284.629	0.706619	0.840606
	286.528	1.59563	1.26318
	288.427	1.86815	1.3668
	290.325	0.850924	0.922455
	292.224	0.313963	0.560324
	294.122	0.134126	0.366232
	296.021	0.263746	0.513562
	297.92	0.195001	0.441589
	299.818	-0.196301	0.443059
	301.717	0.324587	0.569725
	303.616	1.10186	1.0497
	305.514	1.30747	1.14345
	307.413	1.01527	1.00761
	309.311	1.2327	1.11027
	311.21	1.71559	1.30981
	313.109	1.89673	1.37722
	315.007	1.01097	1.00547
	316.906	0.551086	0.742351
	318.805	0.640844	0.800527
	320.703	1.1436	1.06939
	322.602	1.65965	1.28827
	324.5	2.02807	1.4241
	326.399	2.36394	1.53751
	328.298	3.21744	1.79372
	330.196	3.3071	1.81854
	332.095	3.50458	1.87205
	333.993	3.83754	1.95896
	335.892	4.4392	2.10694
	337.791	5.36362	2.31595
	339.689	6.53839	2.55703
	341.588	7.69371	2.77375
	343.487	9.71871	3.11748
	345.385	12.4634	3.53035
	347.284	17.2311	4.15104
	349.182	21.3662	4.62236
	351.081	25.9194	5.09111
	352.98	27.8269	5.27512
	354.878	26.8111	5.17795
	356.777	23.2718	4.82409
	358.676	18.6059	4.31346
	360.574	14.4647	3.80325
	362.473	10.7707	3.28187
	364.371	8.01509	2.83109
	366.27	6.62114	2.57316
	368.169	5.95368	2.44002
	370.067	5.76967	2.40201
	371.966	4.99767	2.23555
	373.864	4.10095	2.02508
	375.763	4.20386	2.05033
	377.662	4.02429	2.00606
	379.56	3.51849	1.87576
	381.459	3.10877	1.76317
	383.358	2.35099	1.53329
	385.256	1.91524	1.38392
	387.155	2.02439	1.42281
	389.053	2.66216	1.63161
	390.952	2.95223	1.7182
	392.851	2.60793	1.61491
	394.749	2.18233	1.47727
	396.648	2.03115	1.42519
	398.547	1.93319	1.39039
	400.445	1.78809	1.3372
	402.344	1.43387	1.19744
	404.242	0.878651	0.937364
	406.141	1.15101	1.07285
	408.04	1.86858	1.36696
	409.938	2.49654	1.58005
	411.837	2.79897	1.67301
	413.735	2.63296	1.62264
	415.634	2.17621	1.4752
	417.533	1.82856	1.35224
	419.431	1.5468	1.2437
	421.33	1.84415	1.358
	423.229	1.52568	1.23518
	425.127	1.22427	1.10647
	427.026	0.277842	0.527107
	428.924	0.399097	0.631741
	430.823	0.742398	0.861625
	432.722	1.84593	1.35865
	434.62	2.14141	1.46336
	436.519	1.86983	1.36742
	438.418	0.88283	0.93959
	440.316	0.226404	0.47582
	442.215	-0.223555	0.472817
	444.113	-0.325098	0.570174
	446.012	0.27052	0.520115
	447.911	0.375863	0.613077
	449.809	0.5589	0.747596
	451.708	0.153273	0.391501
	453.606	0.16885	0.410914
	455.505	0.0528779	0.229952
	457.404	-0.114288	0.338065
	459.302	-0.0491092	0.221606
	461.201	0.288184	0.536828
	463.1	0.605344	0.778038
	464.998	0.623422	0.789571
	466.897	0.252578	0.502572
	468.795	0.392705	0.626662
	470.694	0.706329	0.840434
	472.593	1.46562	1.21063
	474.491	1.72161	1.3121
	476.39	1.31909	1.14852
	478.289	0.6602	0.812527
	480.187	0.29823	0.546105
	482.086	0.137086	0.370252
	483.984	0.299854	0.547589
	485.883	0.433108	0.658109
	487.782	0.101464	0.318534
	489.68	0.580334	0.761797
	491.579	0.563111	0.750407
	493.478	0.748003	0.864872
	495.376	0.990044	0.995009
	497.275	1.47564	1.21476
	499.173	1.81623	1.34768
	501.072	1.45468	1.2061
	502.971	0.774549	0.880085
	504.869	0.38474	0.620274
	506.768	0.660295	0.812585
	508.666	1.16706	1.08031
	510.565	1.59038	1.2611
	512.464	1.07377	1.03623
	514.362	0.685463	0.827927
	516.261	0.430166	0.65587
	518.16	0.0828199	0.287784
	520.058	0.156652	0.395793
	521.957	-0.399789	0.632289
	523.855	0.0864825	0.294079
	525.754	0.468291	0.684318
	527.653	0.197283	0.444166
	529.551	-0.212841	0.461347
	531.45	-0.365643	0.604684
	533.349	-0.048937	0.221217
	535.247	0.393239	0.627087
	537.146	0.649206	0.805733
	539.044	0.709225	0.842155
	540.943	0.706651	0.840626
	542.842	0.825916	0.908799
	544.74	0.579137	0.76101
	546.639	0.516667	0.718796
	548.537	0.69632	0.834458
	550.436	1.18974	1.09075
	552.335	1.15438	1.07442
	554.233	1.05417	1.02673
	556.132	1.19966	1.09529
	558.031	1.36628	1.16888
	559.929	1.5343	1.23867
	561.828	1.40442	1.18508
	563.726	0.589233	0.767615
	565.625	0.399689	0.632209
	567.524	0.215523	0.464245
	569.422	0.604369	0.777412
	571.321	0.683376	0.826666
	573.22	1.12768	1.06192
	575.118	1.20023	1.09555
	577.017	1.78043	1.33433
	578.915	1.71747	1.31052
	580.814	1.68371	1.29758
	582.713	1.20082	1.09582
	584.611	1.11622	1.05651
	586.51	0.687477	0.829143
	588.408	0.345408	0.587714
	590.307	0.479132	0.692193
	592.206	-0.0568194	0.238368
	594.104	-0.230232	0.479825
	596.003	0.0926121	0.304322
	597.902	0.391552	0.625741
	599.8	0.510759	0.714674
	601.699	-0.277413	0.5267
	603.597	-0.0502241	0.224107
	605.496	-0.301438	0.549034
	607.395	-0.410394	0.64062
	609.293	-0.292674	0.540994
	611.192	0.0317685	0.178237
	613.091	0.310282	0.55703
	614.989	0.178856	0.422914
	616.888	0.439769	0.663151
	618.786	0.713277	0.844557
	620.685	0.169979	0.412286
	622.584	-0.142172	0.377057
	624.482	-0.177647	0.421482
	626.381	-0.247321	0.497314
	628.279	-0.153824	0.392204
	630.178	0.0516782	0.227328
	632.077	0.432624	0.657742
	633.975	0.072136	0.268581
	635.874	0.254205	0.504187
	637.773	0.336051	0.579699
	639.671	0.672078	0.819803
	641.57	0.782191	0.884416
	643.468	1.21295	1.10134
	645.367	1.60017	1.26498
	647.266	1.93108	1.38963
	649.164	2.16365	1.47094
	651.063	2.30101	1.51691
	652.962	2.19321	1.48095
	654.86	2.26158	1.50385
	656.759	2.29783	1.51586
	658.657	2.91299	1.70675
	660.556	3.19354	1.78705
	662.455	3.90692	1.97659
	664.353	4.37656	2.09202
	666.252	5.36801	2.3169
	668.15	6.71081	2.59052
	670.049	8.48668	2.91319
	671.948	10.9096	3.30296
	673.846	13.5832	3.68554
	675.745	17.0041	4.1236
	677.644	20.3753	4.5139
	679.542	23.7478	4.87317
	681.441	26.6107	5.15856
	683.339	28.7677	5.36355
	685.238	30.4767	5.52057
	687.137	32.5946	5.70917
	689.035	36.1725	6.01436
	690.934	41.6291	6.45206
	692.833	49.7871	7.05599
	694.731	60.4786	7.7768
	696.63	74.3197	8.62089
	698.528	90.9159	9.53498
	700.427	112.534	10.6082
	702.326	134.113	11.5807
	704.224	155.335	12.4633
	706.123	170.483	13.0569
	708.021	175.74	13.2567
	709.92	170.914	13.0734
	711.819	158.431	12.5869
	713.717	139.147	11.796
	715.616	118.931	10.9055
	717.515	98.5432	9.92689
	719.413	79.806	8.93342
	721.312	65.2459	8.0775
	723.21	53.0418	7.28298
	725.109	43.5303	6.59775
	727.008	36.3828	6.03182
	728.906	30.464	5.51942
	730.805	25.8544	5.08472
	732.704	21.9197	4.68185
	734.602	19.1689	4.37823
	736.501	16.6734	4.0833
	738.399	14.5152	3.80988
	740.298	12.6593	3.558
	742.197	11.5362	3.3965
	744.095	10.2742	3.20534
	745.994	9.22623	3.03747
	747.892	8.34885	2.88944
	749.791	7.61926	2.7603
	751.69	6.83822	2.615
	753.588	5.77788	2.40372
	755.487	4.70687	2.16953
	757.386	3.88737	1.97164
	759.284	3.62319	1.90347
	761.183	3.62678	1.90441
	763.081	3.77121	1.94196
	764.98	3.65825	1.91266
	766.879	3.66122	1.91343
	768.777	3.44563	1.85624
	770.676	3.20794	1.79107
	772.575	2.62654	1.62066
	774.473	1.92597	1.38779
	776.372	1.6877	1.29911
	778.27	1.26576	1.12506
	780.169	1.10315	1.05031
	782.068	0.679115	0.824085
	783.966	0.23403	0.483766
	785.865	0.373851	0.611433
	787.764	0.743331	0.862167
	789.662	1.16514	1.07942
	791.561	1.0055	1.00274
	793.459	0.668657	0.817715
	795.358	0.153109	0.391292
	797.257	0.236264	0.48607
	799.155	0.600341	0.774817
	801.054	0.907179	0.952459
	802.952	0.607078	0.779152
	804.851	-0.21517	0.463865
	806.75	-0.387827	0.622757
	808.648	-0.157877	0.397337
	810.547	0.0369143	0.192131
	812.446	-0.239554	0.489443
	814.344	-0.242324	0.492264
	816.243	0.123326	0.351178
	818.141	0.388362	0.623187
	820.04	0.414087	0.643496
	821.939	0.0249278	0.157885
	823.837	0.139929	0.374071
	825.736	0.109952	0.33159
	827.635	0.523245	0.723357
	829.533	0.32885	0.573454
	831.432	0.35389	0.594886
	833.33	0.44582	0.667697
	835.229	0.665562	0.81582
	837.128	0.485464	0.696752
	839.026	0.2879	0.536563
	840.925	-0.0675334	0.259872
	842.823	0.13277	0.364376
	844.722	-0.138062	0.371567
	846.621	-0.360732	0.60061
	848.519	-0.167373	0.409112
	850.418	0.549397	0.741213
	852.317	1.08659	1.0424
	854.215	1.49563	1.22296
	856.114	1.45576	1.20655
	858.012	1.17599	1.08443
	859.911	0.862269	0.928584
	861.81	0.578089	0.760322
	863.708	0.467187	0.683511
	865.607	0.378999	0.615629
	867.506	0.105993	0.325566
	869.404	-0.0283946	0.168507
	871.303	0.0260035	0.161256
	873.201	0.520381	0.721374
	875.1	0.481516	0.693913
	876.999	0.358715	0.598928
	878.897	-0.0650327	0.255015
	880.796	-0.456289	0.675492
	882.694	-0.678952	0.823985
	884.593	-0.755895	0.869422
	886.492	-0.62861	0.79285
	888.39	-0.345185	0.587524
	890.289	-0.170741	0.413209
	892.188	0.608629	0.780147
	894.086	0.933595	0.966227
	895.985	1.52504	1.23493
	897.883	1.90087	1.37872
	899.782	2.84773	1.68752
	901.681	4.06257	2.01558
	903.579	5.23109	2.28716
	905.478	6.51584	2.55262
	907.377	8.54978	2.924
	909.275	11.1093	3.33306
	911.174	14.5201	3.81052
	913.072	19.1742	4.37884
	914.971	26.1068	5.10948
	916.87	35.7643	5.98033
	918.768	50.3454	7.09545
	920.667	71.9367	8.48155
	922.565	103.452	10.1711
	924.464	146.733	12.1133
	926.363	203.459	14.2639
	928.261	266.771	16.3331
	930.16	330.913	18.191
	932.059	390.222	19.754
	933.957	423.279	20.5737
	935.856	437.753	20.9226
	937.754	428.625	20.7033
	939.653	408.175	20.2034
	941.552	383.165	19.5746
	943.45	359.424	18.9585
	945.349	349.304	18.6897
	947.248	353.542	18.8027
	949.146	374.19	19.344
	951.045	418.549	20.4585
	952.943	482.289	21.9611
	954.842	562.331	23.7135
	956.741	639.194	25.2823
	958.639	708.616	26.6198
	960.538	761.773	27.6002
	962.436	806.594	28.4006
	964.335	850.691	29.1666
	966.234	876.579	29.6071
	968.132	886.588	29.7756
	970.031	860.195	29.3291
	971.93	810.668	28.4722
	973.828	730.513	27.028
	975.727	648.037	25.4566
	977.625	558.49	23.6324
	979.524	482.149	21.9579
	981.423	411.649	20.2891
	983.321	351.788	18.756
	985.22	296.467	17.2182
	987.119	246.319	15.6946
	989.017	203.193	14.2546
	990.916	166.34	12.8973
	992.814	135.03	11.6202
	994.713	109.745	10.4759
	996.612	88.5977	9.41264
	998.51	71.4122	8.45057
	1000.41	56.5108	7.51737
	1002.31	44.3739	6.66137
	1004.21	34.6017	5.88232
	1006.1	26.8369	5.18044
	1008	21.0191	4.58466
	1009.9	16.7006	4.08663
	1011.8	13.073	3.61566
	1013.7	10.3369	3.2151
	1015.6	8.53334	2.92119
	1017.5	7.04891	2.65498
	1019.4	5.78665	2.40555
	1021.29	4.90194	2.21403
	1023.19	4.02589	2.00646
	1025.09	2.99648	1.73103
	1026.99	1.92893	1.38886
	1028.89	1.03973	1.01967
	1030.79	-0.0697869	0.264172
	1032.69	-1.24953	1.11783
	1034.58	-1.89951	1.37823
	1036.48	-2.60293	1.61336
	1038.38	-2.83447	1.68359
	1040.28	-3.22088	1.79468
	1042.18	-3.10498	1.7621
	1044.08	-2.1099	1.45255
	1045.98	-0.787972	0.887678
	1047.87	0.602179	0.776002
	1049.77	2.48617	1.57676
	1051.67	5.27136	2.29594
	1053.57	8.4247	2.90253
	1055.47	11.4506	3.38387
	1057.37	14.291	3.78034
	1059.27	17.309	4.16041
	1061.16	20.5234	4.53028
	1063.06	23.2561	4.82245
	1064.96	25.74	5.07346
	1066.86	27.9929	5.29083
	1068.76	29.6422	5.44446
	1070.66	31.2548	5.5906
	1072.56	32.7274	5.72078
	1074.46	34.3416	5.86017
	1076.35	35.8368	5.98639
	1078.25	37.907	6.15686
	1080.15	40.0638	6.32959
	1082.05	42.9338	6.55239
	1083.95	45.8517	6.77139
	1085.85	49.2657	7.01896
	1087.75	53.463	7.31184
	1089.64	57.044	7.55275
	1091.54	61.7643	7.85903
	1093.44	65.021	8.06356
	1095.34	69.8047	8.35492
	1097.24	74.1844	8.61304
	1099.14	78.3573	8.85197
	1101.04	84.9096	9.21464
	1102.93	90.0883	9.49148
	1104.83	97.0324	9.8505
	1106.73	104.543	10.2246
	1108.63	110.282	10.5015
	1110.53	118.163	10.8703
	1112.43	120.306	10.9684
	1114.33	119.442	10.929
	1116.22	115.938	10.7674
	1118.12	111.401	10.5547
	1120.02	105.883	10.29
	1121.92	101.129	10.0563
	1123.82	93.8232	9.68624
	1125.72	86.8559	9.31965
	1127.62	80.5655	8.97583
	1129.51	73.0861	8.54904
	1131.41	67.0743	8.18989
	1133.31	60.2999	7.7653
	1135.21	54.6574	7.39307
	1137.11	46.9762	6.85392
	1139.01	38.2048	6.181
	1140.91	31.7415	5.63396
	1142.81	26.0346	5.10242
	1144.7	21.121	4.59576
	1146.6	16.8849	4.10913
	1148.5	12.7355	3.56869
	1150.4	9.76083	3.12423
	1152.3	7.60738	2.75815
	1154.2	6.02255	2.45409
	1156.1	4.88435	2.21006
	1157.99	3.32929	1.82464
	1159.89	2.37192	1.5401
	1161.79	1.50655	1.22742
	1163.69	0.92115	0.959765
	1165.59	0.531596	0.729107
	1167.49	-0.784481	0.885709
	1169.39	-0.76213	0.873001
	1171.28	-1.1129	1.05494
	1173.18	-1.15626	1.0753
	1175.08	-0.958593	0.979077
	1176.98	-1.17924	1.08593
	1178.88	-1.45475	1.20613
	1180.78	-2.01876	1.42083
	1182.68	-1.84045	1.35663
	1184.57	-0.809917	0.899954
	1186.47	-0.18483	0.429919
	1188.37	1.2948	1.13789
	1190.27	3.56424	1.88792
	1192.17	6.43759	2.53724
	1194.07	11.3837	3.37398
	1195.97	14.4892	3.80647
	1197.87	22.5652	4.75029
	1199.76	26.5123	5.14901
	1201.66	38.039	6.16757
	1203.56	48.7023	6.9787
	1205.46	61.7882	7.86055
	1207.36	85.8867	9.26751
	1209.26	100.501	10.025
	1211.16	135.743	11.6509
	1213.05	150.962	12.2867
	1214.95	183.203	13.5353
	1216.85	203.83	14.2769
	1218.75	226.925	15.064
	1220.65	248.816	15.7739
	1222.55	256.184	16.0057
	1224.45	245.123	15.6564
	1226.34	230.756	15.1907
	1228.24	201.294	14.1878
	1230.14	164.278	12.8171
	1232.04	139.292	11.8022
	1233.94	109.84	10.4805
	1235.84	92.5081	9.61811
	1237.74	78.3188	8.84979
	1239.63	67.5152	8.21677
	1241.53	62.1889	7.88599
	1243.43	56.9545	7.54682
	1245.33	54.2007	7.36212
	1247.23	52.7745	7.2646
	1249.13	51.7491	7.19369
	1251.03	54.447	7.37882
	1252.93	56.4573	7.51381
	1254.82	60.3393	7.76783
	1256.72	64.4264	8.02661
	1258.62	68.8134	8.29538
	1260.52	75.8967	8.71187
	1262.42	80.6339	8.97964
	1264.32	86.3507	9.29251
	1266.22	88.2677	9.39509
	1268.11	89.7135	9.47172
	1270.01	90.6	9.5184
	1271.91	88.5667	9.41099
	1273.81	88.3264	9.39822
	1275.71	84.9542	9.21706
	1277.61	83.1038	9.11613
	1279.51	80.8401	8.99111
	1281.4	78.8506	8.87978
	1283.3	79.7546	8.93054
	1285.2	78.0334	8.83365
	1287.1	80.0511	8.94713
	1289	79.1732	8.89793
	1290.9	80.59	8.9772
	1292.8	81.2646	9.01469
	1294.69	82.0105	9.05596
	1296.59	84.7243	9.20458
	1298.49	84.7113	9.20387
	1300.39	87.62	9.36055
	1302.29	87.9456	9.37793
	1304.19	90.7633	9.52698
	1306.09	92.8484	9.63579
	1307.99	94.7249	9.73267
	1309.88	98.7363	9.93662
	1311.78	99.6447	9.98222
	1313.68	104.837	10.239
	1315.58	105.677	10.2799
	1317.48	109.341	10.4566
	1319.38	110.604	10.5168
	1321.28	112.399	10.6018
	1323.17	112.529	10.608
	1325.07	112.688	10.6154
	1326.97	111.128	10.5417
	1328.87	107.215	10.3545
	1330.77	105.082	10.2509
	1332.67	98.0257	9.90079
	1334.57	94.3311	9.71242
	1336.46	87.7934	9.36982
	1338.36	82.3993	9.07741
	1340.26	76.2899	8.73441
	1342.16	69.7585	8.35215
	1344.06	63.8256	7.98909
	1345.96	57.2014	7.56316
	1347.86	51.4921	7.1758
	1349.75	45.3716	6.73584
	1351.65	40.208	6.34097
	1353.55	35.0443	5.91983
	1355.45	30.3202	5.50638
	1357.35	26.0406	5.103
	1359.25	22.436	4.73667
	1361.15	19.7768	4.44711
	1363.05	16.4842	4.06007
	1364.94	13.3428	3.65278
	1366.84	10.4574	3.23379
	1368.74	7.39097	2.71863
	1370.64	4.95945	2.22698
	1372.54	2.49789	1.58047
	1374.44	1.2655	1.12494
	1376.34	0.106723	0.326684
	1378.23	-0.717717	0.847182
	1380.13	-1.46119	1.2088
	1382.03	-2.36673	1.53842
	1383.93	-2.37905	1.54242
	1385.83	-2.46198	1.56907
	1387.73	-1.9072	1.38101
	1389.63	-1.49875	1.22423
	1391.52	-0.790476	0.889087
	1393.42	0.384365	0.619972
	1395.32	1.96982	1.4035
	1397.22	3.5875	1.89407
	1399.12	4.6972	2.1673
	1401.02	6.43281	2.5363
	1402.92	8.1309	2.85147
	1404.81	10.2282	3.19816
	1406.71	11.7434	3.42686
	1408.61	13.0663	3.61474
	1410.51	14.4382	3.79976
	1412.41	15.4062	3.92507
	1414.31	15.6254	3.95289
	1416.21	15.2831	3.90936
	1418.11	14.4908	3.80668
	1420	13.9415	3.73383
	1421.9	13.0312	3.60987
	1423.8	11.8472	3.44198
	1425.7	9.99729	3.16185
	1427.6	8.3713	2.89332
	1429.5	7.39518	2.71941
	1431.4	6.73031	2.59428
	1433.29	6.04873	2.45942
	1435.19	5.10344	2.25908
	1437.09	4.14417	2.03572
	1438.99	3.33408	1.82595
	1440.89	2.28451	1.51146
	1442.79	1.662	1.28919
	1444.69	0.727051	0.852673
	1446.58	0.44864	0.669806
	1448.48	-0.0351273	0.187423
	1450.38	-0.341155	0.584085
	1452.28	-0.450126	0.670915
	1454.18	-0.116244	0.340945
	1456.08	0.0307644	0.175398
	1457.98	0.254107	0.504091
	1459.87	0.0362876	0.190493
	1461.77	0.329665	0.574164
	1463.67	0.338834	0.582095
	1465.57	0.527876	0.726551
	1467.47	0.228034	0.47753
	1469.37	-0.0409477	0.202355
	1471.27	-0.274626	0.524048
	1473.17	-0.307525	0.55455
	1475.06	-0.637374	0.798357
	1476.96	-0.860775	0.927779
	1478.86	-0.731738	0.855417
	1480.76	0.0147515	0.121456
	1482.66	-0.152432	0.390426
	1484.56	-0.577027	0.759623
	1486.46	-0.606774	0.778957
	1488.35	-0.166628	0.408201
	1490.25	0.0765166	0.276616
	1492.15	0.461037	0.678997
	1494.05	0.259484	0.509396
	1495.95	0.20767	0.455708
	1497.85	0.276664	0.525988
	1499.75	0.476488	0.690281
	1501.64	0.525686	0.725042
	1503.54	0.392019	0.626115
	1505.44	0.166744	0.408343
	1507.34	0.187734	0.433282
	1509.24	0.236456	0.486267
	1511.14	0.579884	0.761501
	1513.04	0.348671	0.590484
	1514.93	0.0307536	0.175367
	1516.83	0.383859	0.619564
	1518.73	1.25954	1.12229
	1520.63	1.61707	1.27164
	1522.53	1.5073	1.22772
	1524.43	0.85671	0.925587
	1526.33	0.21412	0.462731
	1528.23	-0.130363	0.361059
	1530.12	-0.0494359	0.222342
	1532.02	0.114736	0.338727
	1533.92	0.164651	0.405772
	1535.82	0.159124	0.398903
	1537.72	0.17235	0.41515
	1539.62	0.390416	0.624833
	1541.52	0.251348	0.501346
	1543.41	0.0915533	0.302578
	1545.31	0.217137	0.465979
	1547.21	0.318031	0.563942
	1549.11	-0.0144741	0.120308
	1551.01	-0.4428	0.665432
	1552.91	-0.530297	0.728215
	1554.81	-0.481524	0.693919
	1556.7	0.102082	0.319503
	1558.6	0.345145	0.58749
	1560.5	0.537742	0.733309
	1562.4	0.281223	0.530305
	1564.3	0.0594402	0.243804
	1566.2	0.240165	0.490066
	1568.1	0.430867	0.656404
	1569.99	0.824893	0.908236
	1571.89	0.820121	0.905605
	1573.79	0.766256	0.875361
	1575.69	1.02647	1.01315
	1577.59	1.48289	1.21774
	1579.49	1.95906	1.39966
	1581.39	2.41054	1.55259
	1583.29	2.55874	1.59961
	1585.18	2.95036	1.71766
	1587.08	3.38792	1.84063
	1588.98	4.10845	2.02693
	1590.88	4.59018	2.14247
	1592.78	6.17638	2.48523
	1594.68	7.84757	2.80135
	1596.58	9.0203	3.00338
	1598.47	9.88442	3.14395
	1600.37	11.2799	3.35856
	1602.27	13.1549	3.62697
	1604.17	14.8736	3.85662
	1606.07	16.2876	4.03579
	1607.97	17.6103	4.19646
	1609.87	19.4465	4.40982
	1611.76	20.8436	4.56548
	1613.66	22.4951	4.7429
	1615.56	23.6193	4.85997
	1617.46	24.468	4.94651
	1619.36	26.1138	5.11017
	1621.26	27.7064	5.26368
	1623.16	28.857	5.37187
	1625.05	29.7593	5.4552
	1626.95	29.9117	5.46916
	1628.85	30.4862	5.52143
	1630.75	30.6863	5.53952
	1632.65	30.9439	5.56273
	1634.55	30.7276	5.54325
	1636.45	30.6107	5.53269
	1638.34	30.5191	5.52441
	1640.24	30.4846	5.52128
	1642.14	31.0609	5.57323
	1644.04	31.4613	5.60904
	1645.94	32.2183	5.67612
