Generated file C:/Users/didvk/OneDrive - University of Florida/UF_Isaiah_06-16-2020-Tue/Analysis/Re0.1Mo0.9B2/Re0.1Mo0.9B2_HPXRD_run2_300_20220710 - Copy/mask&dat&fxye_4position/16_ReMoB2_74p0GPa_645psi_P1_C4_D1w_114.fxye using DIOPTAS
# == pyFAI calibration ==
# Distance Sample to Detector: 0.2103851508954585 m
# PONI: 8.889e-02, 8.665e-02 m
# Rotations: 0.008634 -0.000915 0.000000 rad
# 
# == Fit2d calibration ==
# Distance Sample-beamCenter: 210.393 mm
# Center: x=493.236, y=515.685 pix
# Tilt: 0.497 deg  TiltPlanRot: -173.953 deg
# 
# Detector Detector	 Spline= None	 PixelSize= 1.720e-04, 1.720e-04 m
#    Detector has a mask: False 
#    Detector has a dark current: False 
#    detector has a flat field: False 
# 
# Wavelength: 4.133e-11 m
# Mask applied: None
# Dark current applied: None
# Flat field applied: None
# Polarization factor: None
# Normalization factor: None
BANK	1	1129	1129 CONS	282.731	1.89862 0.4133 0.0 FXYE
	282.731	0.248826	0.498825
	284.629	-0.0163786	0.127979
	286.528	0.168945	0.411029
	288.427	0.352635	0.593831
	290.325	0.498632	0.706139
	292.224	0.754497	0.868618
	294.122	0.484788	0.696267
	296.021	0.222584	0.471788
	297.92	0.337855	0.581253
	299.818	0.39804	0.630904
	301.717	1.21338	1.10154
	303.616	1.25606	1.12074
	305.514	1.75659	1.32536
	307.413	1.60678	1.26759
	309.311	1.28164	1.13209
	311.21	0.760738	0.872203
	313.109	0.814121	0.902287
	315.007	0.456695	0.675792
	316.906	0.374689	0.612119
	318.805	0.284867	0.533729
	320.703	1.138	1.06677
	322.602	0.971126	0.985457
	324.5	0.751263	0.866755
	326.399	0.69433	0.833265
	328.298	1.46541	1.21054
	330.196	1.65252	1.2855
	332.095	1.96251	1.40089
	333.993	2.64371	1.62595
	335.892	3.36203	1.83358
	337.791	3.71708	1.92797
	339.689	3.65771	1.91251
	341.588	3.63165	1.90569
	343.487	4.71381	2.17113
	345.385	6.69116	2.58673
	347.284	10.6931	3.27003
	349.182	16.2015	4.02511
	351.081	24.6149	4.96134
	352.98	34.2067	5.84865
	354.878	43.79	6.6174
	356.777	46.5907	6.82574
	358.676	42.078	6.48675
	360.574	31.1489	5.58112
	362.473	20.4969	4.52735
	364.371	12.6558	3.5575
	366.27	7.96699	2.82259
	368.169	5.27173	2.29603
	370.067	4.28425	2.06984
	371.966	3.39198	1.84173
	373.864	1.96696	1.40249
	375.763	1.38554	1.17709
	377.662	1.05214	1.02574
	379.56	1.54479	1.24289
	381.459	1.70029	1.30395
	383.358	1.44515	1.20214
	385.256	1.31108	1.14502
	387.155	1.45039	1.20432
	389.053	1.30601	1.14281
	390.952	0.994118	0.997055
	392.851	0.863695	0.929352
	394.749	1.09558	1.0467
	396.648	1.38548	1.17706
	398.547	1.53865	1.24042
	400.445	1.52337	1.23425
	402.344	1.22497	1.10679
	404.242	1.01881	1.00936
	406.141	1.08413	1.04121
	408.04	1.1272	1.0617
	409.938	1.26872	1.12638
	411.837	1.11997	1.05829
	413.735	1.32025	1.14902
	415.634	1.04467	1.02209
	417.533	0.526581	0.725659
	419.431	0.400808	0.633094
	421.33	0.47004	0.685595
	423.229	0.813933	0.902182
	425.127	0.552303	0.743171
	427.026	0.259636	0.509545
	428.924	-0.141131	0.375674
	430.823	0.0409315	0.202315
	432.722	0.251322	0.50132
	434.62	0.128906	0.359035
	436.519	0.59746	0.772956
	438.418	0.675852	0.822102
	440.316	0.854069	0.924159
	442.215	0.486075	0.69719
	444.113	0.311968	0.558541
	446.012	0.0853532	0.292153
	447.911	-0.117637	0.342982
	449.809	-0.0572871	0.239347
	451.708	-0.0484231	0.220052
	453.606	0.616558	0.785212
	455.505	0.800316	0.894604
	457.404	1.41944	1.1914
	459.302	1.55484	1.24693
	461.201	1.68529	1.29819
	463.1	1.2158	1.10263
	464.998	0.702603	0.838214
	466.897	0.553754	0.744147
	468.795	0.185008	0.430126
	470.694	0.326077	0.571031
	472.593	0.740501	0.860524
	474.491	0.946	0.972625
	476.39	1.28606	1.13405
	478.289	0.622366	0.788902
	480.187	0.344245	0.586724
	482.086	-0.0613005	0.247589
	483.984	0.167012	0.408671
	485.883	0.374802	0.612211
	487.782	0.643875	0.802418
	489.68	0.769975	0.877482
	491.579	1.04552	1.02251
	493.478	1.33455	1.15523
	495.376	0.969363	0.984562
	497.275	1.07403	1.03635
	499.173	1.03947	1.01954
	501.072	1.02389	1.01187
	502.971	1.05061	1.02499
	504.869	1.34511	1.15979
	506.768	1.22244	1.10564
	508.666	1.43175	1.19656
	510.565	1.02	1.00995
	512.464	0.339175	0.582388
	514.362	-0.120631	0.347319
	516.261	0.0711437	0.266728
	518.16	0.272217	0.521744
	520.058	0.298492	0.546344
	521.957	0.324776	0.569891
	523.855	0.749066	0.865486
	525.754	1.42251	1.19269
	527.653	1.19196	1.09177
	529.551	1.80655	1.34408
	531.45	1.57153	1.25361
	533.349	1.50846	1.22819
	535.247	0.825437	0.908536
	537.146	0.30956	0.556381
	539.044	0.727197	0.852759
	540.943	0.620715	0.787855
	542.842	0.43093	0.656453
	544.74	0.153924	0.392331
	546.639	-0.117576	0.342894
	548.537	-0.112869	0.335959
	550.436	0.127204	0.356656
	552.335	0.483039	0.69501
	554.233	0.772252	0.878779
	556.132	0.853306	0.923746
	558.031	1.10113	1.04935
	559.929	1.36749	1.1694
	561.828	1.70276	1.3049
	563.726	1.3675	1.1694
	565.625	0.927354	0.962992
	567.524	0.807035	0.898351
	569.422	0.445325	0.667327
	571.321	0.055819	0.23626
	573.22	0.395171	0.628626
	575.118	1.23795	1.11263
	577.017	0.723206	0.850415
	578.915	0.603132	0.776616
	580.814	0.0186431	0.13654
	582.713	0.789065	0.888293
	584.611	1.5259	1.23527
	586.51	1.6614	1.28895
	588.408	1.24922	1.11769
	590.307	0.717788	0.847224
	592.206	0.450109	0.670902
	594.104	0.302893	0.550357
	596.003	0.187372	0.432865
	597.902	0.746138	0.863793
	599.8	1.20843	1.09928
	601.699	1.60306	1.26612
	603.597	1.13559	1.06564
	605.496	0.825642	0.908648
	607.395	0.44955	0.670485
	609.293	0.152625	0.390672
	611.192	-0.0945477	0.307486
	613.091	0.152943	0.391079
	614.989	0.463592	0.680876
	616.888	0.499444	0.706714
	618.786	0.43951	0.662956
	620.685	0.0669921	0.258828
	622.584	-0.0225528	0.150176
	624.482	-0.455006	0.674541
	626.381	-0.333558	0.577545
	628.279	-0.177046	0.420769
	630.178	0.371324	0.609363
	632.077	1.33684	1.15622
	633.975	1.5611	1.24944
	635.874	1.59651	1.26353
	637.773	1.21875	1.10397
	639.671	1.19446	1.09292
	641.57	1.1959	1.09357
	643.468	1.03719	1.01843
	645.367	1.91865	1.38515
	647.266	2.96143	1.72088
	649.164	4.21529	2.05312
	651.063	4.98323	2.23231
	652.962	4.19135	2.04728
	654.86	3.78889	1.94651
	656.759	3.14645	1.77382
	658.657	3.04847	1.74599
	660.556	2.78046	1.66747
	662.455	2.56644	1.60201
	664.353	3.45682	1.85925
	666.252	4.08432	2.02097
	668.15	5.08457	2.2549
	670.049	5.9559	2.44047
	671.948	7.47626	2.73427
	673.846	9.64416	3.1055
	675.745	13.0598	3.61383
	677.644	17.8887	4.22951
	679.542	23.8699	4.88568
	681.441	30.4512	5.51826
	683.339	37.1232	6.09288
	685.238	42.5354	6.52192
	687.137	46.6971	6.83352
	689.035	48.5652	6.96887
	690.934	48.0219	6.92979
	692.833	46.3935	6.81128
	694.731	44.769	6.69096
	696.63	45.9187	6.77634
	698.528	51.6575	7.18732
	700.427	63.8595	7.99121
	702.326	85.4679	9.24488
	704.224	114.711	10.7103
	706.123	155.539	12.4715
	708.021	200.02	14.1429
	709.92	235.362	15.3415
	711.819	257.172	16.0366
	713.717	255.705	15.9908
	715.616	238.767	15.4521
	717.515	204.464	14.2991
	719.413	164.047	12.8081
	721.312	126.149	11.2316
	723.21	93.6383	9.67669
	725.109	68.2599	8.26195
	727.008	49.156	7.01113
	728.906	35.8456	5.98712
	730.805	27.2041	5.21575
	732.704	21.7352	4.6621
	734.602	17.9737	4.23954
	736.501	14.6089	3.82216
	738.399	11.7521	3.42813
	740.298	9.55873	3.09172
	742.197	8.28776	2.87885
	744.095	6.81679	2.6109
	745.994	5.82449	2.4134
	747.892	5.3606	2.3153
	749.791	5.29425	2.30092
	751.69	4.88583	2.21039
	753.588	4.15227	2.03771
	755.487	3.07191	1.75269
	757.386	1.9031	1.37953
	759.284	1.33909	1.15719
	761.183	1.29079	1.13613
	763.081	1.42699	1.19457
	764.98	1.1224	1.05943
	766.879	0.953366	0.976405
	768.777	0.83947	0.916226
	770.676	0.675247	0.821734
	772.575	0.413225	0.642826
	774.473	0.613539	0.783288
	776.372	0.759418	0.871446
	778.27	0.138268	0.371844
	780.169	-0.214454	0.463092
	782.068	-0.301197	0.548814
	783.966	0.125814	0.354703
	785.865	0.571056	0.755683
	787.764	0.707994	0.841424
	789.662	0.600681	0.775036
	791.561	0.478944	0.692058
	793.459	0.443915	0.666269
	795.358	0.191628	0.437754
	797.257	0.0582445	0.241339
	799.155	0.00182506	0.0427207
	801.054	-0.104915	0.323906
	802.952	0.0172252	0.131245
	804.851	0.0147754	0.121554
	806.75	0.403652	0.635336
	808.648	0.653031	0.808103
	810.547	0.404865	0.63629
	812.446	-0.0490906	0.221564
	814.344	-0.199033	0.446131
	816.243	-0.0553829	0.235336
	818.141	-0.177361	0.421143
	820.04	-0.133149	0.364896
	821.939	0.0930278	0.305005
	823.837	0.37931	0.615882
	825.736	0.535302	0.731644
	827.635	0.243252	0.493206
	829.533	0.196956	0.443797
	831.432	0.271579	0.521132
	833.33	0.729517	0.854118
	835.229	0.490924	0.70066
	837.128	0.439627	0.663044
	839.026	0.558846	0.74756
	840.925	0.704559	0.83938
	842.823	0.718487	0.847636
	844.722	0.897982	0.947619
	846.621	1.36468	1.1682
	848.519	1.0707	1.03474
	850.418	0.68157	0.825572
	852.317	0.886651	0.941622
	854.215	0.518896	0.720344
	856.114	0.430093	0.655815
	858.012	0.0691951	0.26305
	859.911	0.146527	0.382789
	861.81	-0.127422	0.356962
	863.708	-0.105791	0.325256
	865.607	-0.418885	0.647213
	867.506	-0.023483	0.153242
	869.404	-0.17966	0.423864
	871.303	-0.387073	0.622152
	873.201	-0.650808	0.806726
	875.1	-0.816965	0.903861
	876.999	-0.926203	0.962394
	878.897	-0.925203	0.961875
	880.796	-1.08568	1.04196
	882.694	-0.958968	0.979269
	884.593	-0.856418	0.925428
	886.492	-0.614952	0.784189
	888.39	-0.518764	0.720253
	890.289	-0.48909	0.69935
	892.188	-0.217373	0.466232
	894.086	0.469319	0.685068
	895.985	1.12488	1.06061
	897.883	1.96208	1.40074
	899.782	2.97139	1.72377
	901.681	4.28922	2.07104
	903.579	5.86769	2.42233
	905.478	6.89651	2.62612
	907.377	8.30447	2.88175
	909.275	9.41472	3.06834
	911.174	11.0954	3.33097
	913.072	13.1019	3.61965
	914.971	15.3916	3.92321
	916.87	18.347	4.28334
	918.768	22.654	4.75962
	920.667	29.1104	5.3954
	922.565	39.4635	6.282
	924.464	55.9412	7.47939
	926.363	83.8795	9.15857
	928.261	129.131	11.3636
	930.16	200.313	14.1532
	932.059	295.118	17.179
	933.957	416.349	20.4046
	935.856	542.094	23.2829
	937.754	663.009	25.749
	939.653	759.08	27.5514
	941.552	813.497	28.5219
	943.45	829.81	28.8064
	945.349	805.63	28.3836
	947.248	766.107	27.6786
	949.146	716.128	26.7606
	951.045	655.173	25.5964
	952.943	599.221	24.479
	954.842	555.708	23.5735
	956.741	540.709	23.2531
	958.639	556.165	23.5832
	960.538	616.715	24.8337
	962.436	684.245	26.1581
	964.335	752.858	27.4383
	966.234	793.433	28.1679
	968.132	823.745	28.701
	970.031	852.922	29.2048
	971.93	882.805	29.712
	973.828	893.046	29.8839
	975.727	861.896	29.3581
	977.625	790.849	28.122
	979.524	708.028	26.6088
	981.423	614.391	24.7869
	983.321	523.935	22.8896
	985.22	440.026	20.9768
	987.119	372.786	19.3077
	989.017	314.757	17.7414
	990.916	266.541	16.3261
	992.814	225.214	15.0071
	994.713	192.011	13.8568
	996.612	164.482	12.825
	998.51	143.036	11.9598
	1000.41	123.031	11.0919
	1002.31	106.221	10.3063
	1004.21	90.7761	9.52765
	1006.1	77.2179	8.78737
	1008	64.1331	8.00832
	1009.9	52.5133	7.2466
	1011.8	41.1477	6.41465
	1013.7	32.083	5.66418
	1015.6	24.6305	4.96291
	1017.5	18.086	4.25276
	1019.4	13.5874	3.68611
	1021.29	9.66198	3.10837
	1023.19	6.6146	2.57189
	1025.09	3.92176	1.98034
	1026.99	1.87318	1.36864
	1028.89	1.07166	1.03521
	1030.79	0.556045	0.745684
	1032.69	0.0677809	0.260348
	1034.58	-0.503155	0.709334
	1036.48	-1.38503	1.17687
	1038.38	-1.8779	1.37036
	1040.28	-2.22351	1.49114
	1042.18	-1.83164	1.35338
	1044.08	-1.59965	1.26477
	1045.98	-0.987329	0.993644
	1047.87	-1.27506	1.12918
	1049.77	-1.77891	1.33376
	1051.67	-2.30339	1.51769
	1053.57	-2.50552	1.58288
	1055.47	-2.10472	1.45077
	1057.37	-1.11298	1.05498
	1059.27	0.137852	0.371284
	1061.16	1.66975	1.29219
	1063.06	3.14901	1.77455
	1064.96	4.78983	2.18857
	1066.86	6.56948	2.5631
	1068.76	8.0107	2.83032
	1070.66	9.00896	3.00149
	1072.56	9.85892	3.13989
	1074.46	9.93824	3.1525
	1076.35	10.5398	3.2465
	1078.25	10.5623	3.24997
	1080.15	10.7578	3.27991
	1082.05	11.1979	3.34633
	1083.95	12.31	3.50856
	1085.85	13.4265	3.66422
	1087.75	14.8296	3.85092
	1089.64	16.2474	4.0308
	1091.54	17.9433	4.23595
	1093.44	20.1297	4.48662
	1095.34	22.7715	4.77195
	1097.24	25.7974	5.07911
	1099.14	28.3038	5.32013
	1101.04	31.3692	5.60083
	1102.93	34.0053	5.83141
	1104.83	37.2762	6.10542
	1106.73	40.6907	6.37893
	1108.63	45.0806	6.71421
	1110.53	49.039	7.00278
	1112.43	52.6855	7.25848
	1114.33	55.9824	7.48214
	1116.22	58.869	7.67261
	1118.12	61.3008	7.82948
	1120.02	62.7771	7.9232
	1121.92	62.5334	7.90781
	1123.82	61.8869	7.86682
	1125.72	61.4462	7.83876
	1127.62	60.4559	7.77534
	1129.51	58.4658	7.64629
	1131.41	55.7773	7.46842
	1133.31	52.5686	7.25042
	1135.21	49.4673	7.0333
	1137.11	46.2079	6.79764
	1139.01	43.0874	6.5641
	1140.91	39.8919	6.31601
	1142.81	36.5973	6.04957
	1144.7	33.6281	5.79898
	1146.6	30.1069	5.48698
	1148.5	27.3275	5.22757
	1150.4	24.2888	4.92836
	1152.3	23.9462	4.89349
	1154.2	22.0168	4.6922
	1156.1	19.382	4.4025
	1157.99	16.6942	4.08586
	1159.89	14.1445	3.76092
	1161.79	12.2115	3.49449
	1163.69	10.4406	3.23119
	1165.59	9.33534	3.05538
	1167.49	7.86076	2.80371
	1169.39	6.76077	2.60015
	1171.28	5.63971	2.37481
	1173.18	4.55995	2.1354
	1175.08	4.11211	2.02783
	1176.98	3.63748	1.90722
	1178.88	3.47111	1.86309
	1180.78	3.0048	1.73344
	1182.68	3.03325	1.74162
	1184.57	2.84702	1.68731
	1186.47	2.128	1.45877
	1188.37	1.59788	1.26407
	1190.27	0.867777	0.931545
	1192.17	0.746687	0.86411
	1194.07	0.496303	0.704488
	1195.97	0.730917	0.854937
	1197.87	1.41117	1.18793
	1199.76	2.48057	1.57498
	1201.66	4.44503	2.10832
	1203.56	6.96168	2.6385
	1205.46	11.7003	3.42057
	1207.36	17.9722	4.23936
	1209.26	26.6938	5.1666
	1211.16	39.7335	6.30345
	1213.05	57.7165	7.59714
	1214.95	81.8616	9.04774
	1216.85	113.718	10.6639
	1218.75	153.244	12.3792
	1220.65	202.191	14.2194
	1222.55	257.055	16.0329
	1224.45	321.142	17.9204
	1226.34	383.379	19.5801
	1228.24	443.357	21.056
	1230.14	485.302	22.0296
	1232.04	518.454	22.7696
	1233.94	519.031	22.7822
	1235.84	504.712	22.4658
	1237.74	465.168	21.5678
	1239.63	419.439	20.4802
	1241.53	363.639	19.0693
	1243.43	313.254	17.699
	1245.33	265.47	16.2932
	1247.23	218.647	14.7867
	1249.13	176.067	13.269
	1251.03	141.715	11.9044
	1252.93	114.858	10.7172
	1254.82	97.0153	9.84963
	1256.72	82.3468	9.07451
	1258.62	72.2163	8.49802
	1260.52	65.305	8.08115
	1262.42	59.761	7.73052
	1264.32	55.1457	7.42601
	1266.22	50.6491	7.11682
	1268.11	47.9475	6.92442
	1270.01	46.2151	6.79817
	1271.91	44.7773	6.69158
	1273.81	43.6105	6.60382
	1275.71	42.8707	6.54757
	1277.61	42.668	6.53208
	1279.51	43.0629	6.56223
	1281.4	43.2156	6.57386
	1283.3	43.9108	6.62652
	1285.2	44.5033	6.67108
	1287.1	46.2341	6.79956
	1289	47.415	6.88586
	1290.9	49.0536	7.00383
	1292.8	50.6932	7.11992
	1294.69	51.6633	7.18772
	1296.59	52.972	7.27819
	1298.49	53.7588	7.33204
	1300.39	54.7976	7.40254
	1302.29	55.6048	7.45686
	1304.19	55.9429	7.4795
	1306.09	55.5656	7.45423
	1307.99	55.1091	7.42355
	1309.88	55.3728	7.44129
	1311.78	55.6475	7.45973
	1313.68	56.2286	7.49858
	1315.58	56.3312	7.50541
	1317.48	56.7393	7.53255
	1319.38	57.2556	7.56674
	1321.28	58.2128	7.62973
	1323.17	59.9594	7.74334
	1325.07	60.9517	7.80716
	1326.97	61.6458	7.85148
	1328.87	62.4907	7.90511
	1330.77	62.2312	7.88868
	1332.67	61.8075	7.86177
	1334.57	60.195	7.75854
	1336.46	59.0949	7.68732
	1338.36	56.6626	7.52746
	1340.26	53.1646	7.2914
	1342.16	48.7095	6.97922
	1344.06	44.4246	6.66518
	1345.96	40.6253	6.3738
	1347.86	36.7657	6.06347
	1349.75	32.628	5.71209
	1351.65	29.0306	5.38801
	1353.55	25.3453	5.03441
	1355.45	22.1843	4.71002
	1357.35	18.9288	4.35073
	1359.25	15.824	3.97794
	1361.15	13.2353	3.63803
	1363.05	11.2676	3.35672
	1364.94	10.1543	3.18659
	1366.84	8.85025	2.97494
	1368.74	6.78699	2.60518
	1370.64	5.10825	2.26014
	1372.54	3.66051	1.91325
	1374.44	2.41264	1.55327
	1376.34	0.982438	0.99118
	1378.23	0.0196585	0.140209
	1380.13	-0.858943	0.926792
	1382.03	-1.51575	1.23116
	1383.93	-2.07517	1.44055
	1385.83	-2.28569	1.51185
	1387.73	-2.2521	1.5007
	1389.63	-2.28952	1.51312
	1391.52	-2.08424	1.44369
	1393.42	-1.59326	1.26224
	1395.32	-1.27825	1.1306
	1397.22	-0.53372	0.730562
	1399.12	0.314286	0.560612
	1401.02	1.63536	1.27881
	1402.92	2.99354	1.73018
	1404.81	4.66346	2.15951
	1406.71	6.17574	2.4851
	1408.61	7.46603	2.7324
	1410.51	9.43854	3.07222
	1412.41	11.3081	3.36275
	1414.31	13.8507	3.72165
	1416.21	16.0633	4.0079
	1418.11	18.2549	4.27257
	1420	19.8151	4.45141
	1421.9	21.2778	4.61279
	1423.8	22.1318	4.70444
	1425.7	22.1249	4.70371
	1427.6	21.9989	4.69029
	1429.5	21.7932	4.66831
	1431.4	21.6485	4.65279
	1433.29	20.6461	4.5438
	1435.19	19.4187	4.40667
	1437.09	17.6866	4.20554
	1438.99	15.2685	3.9075
	1440.89	12.9797	3.60273
	1442.79	10.9432	3.30805
	1444.69	9.42639	3.07024
	1446.58	7.83689	2.79945
	1448.48	6.2951	2.509
	1450.38	5.09302	2.25677
	1452.28	3.87948	1.96964
	1454.18	3.05697	1.74842
	1456.08	2.67738	1.63627
	1457.98	1.91077	1.38231
	1459.87	1.68211	1.29696
	1461.77	1.1231	1.05976
	1463.67	0.742679	0.861788
	1465.57	-0.280653	0.529767
	1467.47	-0.391098	0.625378
	1469.37	-0.278968	0.528174
	1471.27	0.13733	0.370581
	1473.17	0.399513	0.63207
	1475.06	0.272786	0.522289
	1476.96	-0.20592	0.453784
	1478.86	-0.53688	0.732721
	1480.76	-0.47848	0.691722
	1482.66	-0.705061	0.839679
	1484.56	-0.813031	0.901682
	1486.46	-0.933696	0.96628
	1488.35	-1.00371	1.00186
	1490.25	-0.925884	0.962229
	1492.15	-0.716553	0.846495
	1494.05	-0.342388	0.585139
	1495.95	-0.218288	0.467213
	1497.85	-0.282286	0.531306
	1499.75	-0.273828	0.523286
	1501.64	0.053767	0.231877
	1503.54	0.0744515	0.272858
	1505.44	0.396777	0.629903
	1507.34	0.260978	0.51086
	1509.24	0.333109	0.577156
	1511.14	0.096349	0.310401
	1513.04	-0.144288	0.379853
	1514.93	-0.00154645	0.039325
	1516.83	0.196253	0.443004
	1518.73	1.01768	1.0088
	1520.63	1.36343	1.16766
	1522.53	1.22454	1.10659
	1524.43	0.944765	0.97199
	1526.33	0.821034	0.906109
	1528.23	0.821693	0.906473
	1530.12	0.896596	0.946888
	1532.02	0.956216	0.977863
	1533.92	1.08946	1.04377
	1535.82	1.30275	1.14138
	1537.72	1.23346	1.11061
	1539.62	0.972066	0.985934
	1541.52	0.641185	0.800741
	1543.41	0.381108	0.617339
	1545.31	0.859414	0.927046
	1547.21	0.570636	0.755405
	1549.11	0.380224	0.616623
	1551.01	0.0935863	0.305919
	1552.91	0.0909522	0.301583
	1554.81	0.154945	0.393631
	1556.7	0.187122	0.432576
	1558.6	0.0754964	0.274766
	1560.5	-0.00776181	0.0881011
	1562.4	-0.240725	0.490638
	1564.3	-0.334693	0.578526
	1566.2	0.0396345	0.199084
	1568.1	0.286347	0.535114
	1569.99	0.764227	0.874201
	1571.89	0.766971	0.875769
	1573.79	0.798553	0.893618
	1575.69	0.77125	0.878208
	1577.59	0.514237	0.717103
	1579.49	0.392802	0.626739
	1581.39	0.335734	0.579426
	1583.29	0.281036	0.530128
	1585.18	0.154101	0.392558
	1587.08	0.348582	0.590408
	1588.98	0.915183	0.956652
	1590.88	1.68778	1.29915
	1592.78	2.3843	1.54412
	1594.68	2.58712	1.60845
	1596.58	2.77209	1.66496
	1598.47	2.86543	1.69276
	1600.37	3.44512	1.8561
	1602.27	3.86469	1.96588
	1604.17	4.20941	2.05168
	1606.07	4.51553	2.12498
	1607.97	5.60036	2.36651
	1609.87	6.48665	2.54689
	1611.76	7.14819	2.67361
	1613.66	7.8008	2.79299
	1615.56	8.6203	2.93603
	1617.46	9.68707	3.11241
	1619.36	10.3438	3.21618
	1621.26	11.1943	3.34579
	1623.16	12.1872	3.49102
	1625.05	12.9963	3.60503
	1626.95	13.2172	3.63554
	1628.85	14.0397	3.74696
	1630.75	14.7986	3.84689
	1632.65	15.4339	3.9286
	1634.55	15.9183	3.98978
	1636.45	16.3534	4.04393
	1638.34	16.5178	4.06421
	1640.24	16.5847	4.07243
	1642.14	16.4963	4.06157
	1644.04	16.5749	4.07123
