Generated file C:/Users/didvk/OneDrive - University of Florida/UF_Isaiah_06-16-2020-Tue/Analysis/Re0.1Mo0.9B2/Re0.1Mo0.9B2_HPXRD_run2_300_20220710 - Copy/mask&dat&fxye_4position/17_ReMoB2_78p0GPa_670psi_P1_C4_D1w_120.fxye using DIOPTAS
# == pyFAI calibration ==
# Distance Sample to Detector: 0.2103851508954585 m
# PONI: 8.889e-02, 8.665e-02 m
# Rotations: 0.008634 -0.000915 0.000000 rad
# 
# == Fit2d calibration ==
# Distance Sample-beamCenter: 210.393 mm
# Center: x=493.236, y=515.685 pix
# Tilt: 0.497 deg  TiltPlanRot: -173.953 deg
# 
# Detector Detector	 Spline= None	 PixelSize= 1.720e-04, 1.720e-04 m
#    Detector has a mask: False 
#    Detector has a dark current: False 
#    detector has a flat field: False 
# 
# Wavelength: 4.133e-11 m
# Mask applied: None
# Dark current applied: None
# Flat field applied: None
# Polarization factor: None
# Normalization factor: None
BANK	1	1129	1129 CONS	282.731	1.89862 0.4133 0.0 FXYE
	282.731	0.255493	0.505463
	284.629	0.062591	0.250182
	286.528	0.030213	0.173819
	288.427	0.120949	0.347778
	290.325	0.535867	0.732029
	292.224	0.626029	0.79122
	294.122	1.4302	1.19591
	296.021	2.1797	1.47638
	297.92	2.08097	1.44256
	299.818	1.10551	1.05143
	301.717	0.0689423	0.262569
	303.616	0.15661	0.395739
	305.514	0.165671	0.407027
	307.413	0.555434	0.745274
	309.311	1.55263	1.24605
	311.21	1.99256	1.41158
	313.109	2.46309	1.56943
	315.007	1.85194	1.36086
	316.906	2.2074	1.48573
	318.805	1.57166	1.25366
	320.703	1.18455	1.08837
	322.602	0.794496	0.891345
	324.5	0.665437	0.815743
	326.399	0.914443	0.956265
	328.298	0.685888	0.828183
	330.196	0.865261	0.930194
	332.095	0.46947	0.685179
	333.993	1.2168	1.10309
	335.892	2.13602	1.46151
	337.791	2.98085	1.72651
	339.689	3.28315	1.81195
	341.588	4.61393	2.14801
	343.487	5.61587	2.36978
	345.385	6.4673	2.54309
	347.284	8.51163	2.91747
	349.182	12.4307	3.52572
	351.081	18.3662	4.28558
	352.98	26.1686	5.11552
	354.878	34.1077	5.84018
	356.777	39.7394	6.30392
	358.676	38.7735	6.22684
	360.574	31.7274	5.63271
	362.473	21.5546	4.64269
	364.371	14.5404	3.81319
	366.27	8.45961	2.90854
	368.169	5.09963	2.25824
	370.067	3.21696	1.79359
	371.966	2.13736	1.46197
	373.864	2.0387	1.42783
	375.763	2.10697	1.45154
	377.662	2.04944	1.43158
	379.56	1.63378	1.27819
	381.459	1.21748	1.1034
	383.358	0.872739	0.934205
	385.256	0.860635	0.927704
	387.155	1.15486	1.07464
	389.053	1.303	1.14149
	390.952	0.959819	0.979703
	392.851	0.500334	0.707343
	394.749	0.175995	0.419517
	396.648	0.404348	0.635883
	398.547	0.562894	0.750262
	400.445	0.50824	0.712909
	402.344	0.816767	0.903751
	404.242	0.882974	0.939667
	406.141	0.78656	0.886882
	408.04	0.637374	0.798357
	409.938	0.663777	0.814725
	411.837	0.563339	0.750559
	413.735	0.737441	0.858744
	415.634	0.995229	0.997612
	417.533	1.05688	1.02805
	419.431	0.99712	0.998559
	421.33	0.987973	0.993969
	423.229	1.06518	1.03208
	425.127	0.852821	0.923483
	427.026	0.856638	0.925547
	428.924	0.829962	0.911023
	430.823	1.17826	1.08548
	432.722	0.839684	0.916343
	434.62	0.51498	0.717621
	436.519	0.731298	0.85516
	438.418	0.925646	0.962105
	440.316	1.15081	1.07276
	442.215	1.1635	1.07866
	444.113	0.839414	0.916195
	446.012	0.549087	0.741004
	447.911	-0.12125	0.34821
	449.809	-0.199659	0.446832
	451.708	0.161779	0.402217
	453.606	0.227357	0.47682
	455.505	0.259372	0.509286
	457.404	0.399583	0.632126
	459.302	0.388535	0.623326
	461.201	0.121882	0.349117
	463.1	-0.0589275	0.24275
	464.998	0.416508	0.645375
	466.897	0.628662	0.792882
	468.795	1.05741	1.0283
	470.694	0.862924	0.928937
	472.593	0.819704	0.905375
	474.491	1.11163	1.05434
	476.39	1.21684	1.1031
	478.289	0.814056	0.902251
	480.187	0.520944	0.721765
	482.086	0.194981	0.441567
	483.984	0.508955	0.713411
	485.883	0.297873	0.545777
	487.782	0.807041	0.898355
	489.68	1.48207	1.2174
	491.579	1.35571	1.16435
	493.478	0.670599	0.818901
	495.376	0.419715	0.647854
	497.275	0.200598	0.447882
	499.173	-0.178343	0.422307
	501.072	-0.184086	0.429053
	502.971	0.113697	0.33719
	504.869	0.469368	0.685104
	506.768	0.169628	0.41186
	508.666	0.130267	0.360925
	510.565	0.393222	0.627074
	512.464	1.03824	1.01894
	514.362	1.15806	1.07613
	516.261	0.642809	0.801754
	518.16	0.227156	0.476609
	520.058	0.142444	0.377417
	521.957	0.00399255	0.0631866
	523.855	0.259288	0.509203
	525.754	0.766248	0.875356
	527.653	1.20113	1.09596
	529.551	1.18022	1.08638
	531.45	1.45471	1.20612
	533.349	1.5449	1.24294
	535.247	1.41637	1.19011
	537.146	1.10278	1.05013
	539.044	0.597941	0.773266
	540.943	0.298939	0.546753
	542.842	-0.150674	0.388168
	544.74	-0.0566894	0.238095
	546.639	9.06511e-05	0.00952109
	548.537	0.739233	0.859787
	550.436	0.882823	0.939586
	552.335	0.990562	0.99527
	554.233	0.514808	0.717501
	556.132	0.517123	0.719113
	558.031	0.0760979	0.275858
	559.929	0.131736	0.362955
	561.828	0.605664	0.778244
	563.726	0.372469	0.610303
	565.625	0.0983059	0.313538
	567.524	0.131134	0.362125
	569.422	0.468139	0.684207
	571.321	1.27962	1.1312
	573.22	1.8401	1.3565
	575.118	1.90045	1.37857
	577.017	1.60596	1.26727
	578.915	1.41345	1.18888
	580.814	1.39482	1.18103
	582.713	1.70782	1.30684
	584.611	2.10526	1.45095
	586.51	1.75672	1.32541
	588.408	1.36134	1.16677
	590.307	0.873887	0.934819
	592.206	0.973512	0.986667
	594.104	1.15936	1.07674
	596.003	1.20929	1.09968
	597.902	1.45826	1.20758
	599.8	1.50517	1.22686
	601.699	2.18282	1.47744
	603.597	2.55281	1.59775
	605.496	2.74816	1.65776
	607.395	2.62656	1.62067
	609.293	2.22786	1.4926
	611.192	1.47364	1.21393
	613.091	0.622627	0.789067
	614.989	0.0235473	0.153451
	616.888	-0.459594	0.677933
	618.786	-0.251664	0.501661
	620.685	-0.044723	0.211478
	622.584	0.0971111	0.311627
	624.482	0.170693	0.41315
	626.381	0.154845	0.393504
	628.279	0.0440841	0.209962
	630.178	0.237051	0.486878
	632.077	1.11679	1.05678
	633.975	1.81771	1.34822
	635.874	2.02764	1.42395
	637.773	1.76889	1.33
	639.671	1.70094	1.3042
	641.57	2.463	1.56939
	643.468	3.33448	1.82605
	645.367	4.33622	2.08236
	647.266	6.14254	2.47841
	649.164	7.2321	2.68926
	651.063	7.71371	2.77736
	652.962	7.00941	2.64753
	654.86	5.97011	2.44338
	656.759	5.16237	2.27208
	658.657	4.11059	2.02746
	660.556	3.06337	1.75025
	662.455	2.22347	1.49113
	664.353	2.28105	1.51031
	666.252	2.6414	1.62524
	668.15	2.92235	1.70949
	670.049	3.45141	1.8578
	671.948	4.19893	2.04913
	673.846	5.88833	2.42659
	675.745	8.03256	2.83418
	677.644	11.3162	3.36395
	679.542	15.4312	3.92826
	681.441	21.5166	4.6386
	683.339	29.5345	5.43457
	685.238	37.4744	6.12163
	687.137	45.1282	6.71775
	689.035	50.8727	7.13251
	690.934	51.7269	7.19214
	692.833	49.6266	7.04461
	694.731	45.2772	6.72883
	696.63	43.5583	6.59987
	698.528	45.188	6.7222
	700.427	51.7816	7.19595
	702.326	65.3301	8.0827
	704.224	84.0636	9.16862
	706.123	111.771	10.5722
	708.021	143.046	11.9602
	709.92	173.325	13.1653
	711.819	198.561	14.0912
	713.717	210.064	14.4936
	715.616	208.64	14.4444
	717.515	194.311	13.9395
	719.413	170.343	13.0515
	721.312	139.501	11.811
	723.21	107.237	10.3555
	725.109	78.4758	8.85866
	727.008	56.8747	7.54153
	728.906	41.7192	6.45904
	730.805	30.7483	5.54512
	732.704	23.3681	4.83406
	734.602	17.9307	4.23446
	736.501	14.5688	3.8169
	738.399	11.8566	3.44335
	740.298	10.1356	3.18365
	742.197	8.71097	2.95144
	744.095	7.59886	2.7566
	745.994	6.51077	2.55162
	747.892	5.44839	2.33418
	749.791	4.34378	2.08417
	751.69	3.64019	1.90793
	753.588	3.40669	1.84572
	755.487	3.25246	1.80346
	757.386	2.59188	1.60993
	759.284	1.86543	1.36581
	761.183	1.00715	1.00357
	763.081	0.497036	0.705008
	764.98	0.20896	0.457122
	766.879	0.755508	0.869199
	768.777	1.30578	1.14271
	770.676	0.88787	0.942268
	772.575	0.553487	0.743967
	774.473	0.446676	0.668338
	776.372	0.75904	0.871229
	778.27	0.80376	0.896527
	780.169	0.344048	0.586556
	782.068	-0.360612	0.60051
	783.966	-0.369164	0.607588
	785.865	-0.140362	0.374649
	787.764	-0.0264146	0.162526
	789.662	-0.341792	0.58463
	791.561	-0.11665	0.34154
	793.459	0.644452	0.802778
	795.358	1.03313	1.01643
	797.257	1.19731	1.09422
	799.155	0.9472	0.973242
	801.054	0.71357	0.844731
	802.952	1.00494	1.00247
	804.851	1.16382	1.07881
	806.75	1.50251	1.22577
	808.648	1.34664	1.16045
	810.547	1.62619	1.27522
	812.446	1.42518	1.19381
	814.344	1.17519	1.08406
	816.243	0.665735	0.815926
	818.141	0.346038	0.58825
	820.04	0.274895	0.524304
	821.939	0.406618	0.637666
	823.837	0.504076	0.709983
	825.736	0.301293	0.548902
	827.635	0.047769	0.218561
	829.533	0.0157592	0.125536
	831.432	0.220481	0.469554
	833.33	0.735229	0.857455
	835.229	1.11118	1.05413
	837.128	1.01504	1.00749
	839.026	0.421409	0.64916
	840.925	0.243764	0.493725
	842.823	0.516213	0.718479
	844.722	0.629049	0.793126
	846.621	0.674819	0.821474
	848.519	0.570155	0.755086
	850.418	0.671263	0.819306
	852.317	0.555592	0.74538
	854.215	0.558207	0.747133
	856.114	0.738291	0.859239
	858.012	0.747373	0.864508
	859.911	0.892758	0.944859
	861.81	0.948964	0.974148
	863.708	0.681242	0.825374
	865.607	0.447867	0.669228
	867.506	0.162498	0.403111
	869.404	-0.272966	0.522462
	871.303	-0.567676	0.753443
	873.201	-0.62411	0.790006
	875.1	-0.676199	0.822313
	876.999	-0.867917	0.93162
	878.897	-0.981565	0.99074
	880.796	-1.24997	1.11802
	882.694	-1.40317	1.18456
	884.593	-1.22777	1.10805
	886.492	-0.840177	0.916612
	888.39	-0.753181	0.86786
	890.289	-0.67785	0.823316
	892.188	-0.356655	0.597206
	894.086	0.0207586	0.144078
	895.985	0.818807	0.904879
	897.883	1.90083	1.3787
	899.782	2.83578	1.68398
	901.681	4.02021	2.00505
	903.579	4.47255	2.11484
	905.478	5.69721	2.38688
	907.377	6.33422	2.51679
	909.275	7.45515	2.73041
	911.174	8.19809	2.86323
	913.072	9.25311	3.04189
	914.971	10.6718	3.26678
	916.87	12.6337	3.55439
	918.768	15.8042	3.97545
	920.667	20.1693	4.49102
	922.565	28.1971	5.31009
	924.464	39.572	6.29063
	926.363	58.9301	7.67659
	928.261	89.971	9.48531
	930.16	141.937	11.9137
	932.059	231.241	15.2066
	933.957	362.764	19.0464
	935.856	531.283	23.0496
	937.754	718.553	26.8058
	939.653	892.418	29.8734
	941.552	1009.46	31.772
	943.45	1071.49	32.7337
	945.349	1066.09	32.651
	947.248	1021.06	31.954
	949.146	943.425	30.7152
	951.045	835.082	28.8978
	952.943	730.356	27.0251
	954.842	633.278	25.165
	956.741	565.577	23.7819
	958.639	538.308	23.2015
	960.538	544.296	23.3301
	962.436	571.595	23.9081
	964.335	612.01	24.7388
	966.234	652.184	25.5379
	968.132	687.336	26.2171
	970.031	720.177	26.8361
	971.93	752.604	27.4336
	973.828	769.045	27.7317
	975.727	764.581	27.6511
	977.625	726.335	26.9506
	979.524	673.801	25.9577
	981.423	605.802	24.613
	983.321	539.216	23.221
	985.22	470.826	21.6985
	987.119	408.36	20.2079
	989.017	351.599	18.751
	990.916	300.657	17.3395
	992.814	256.578	16.0181
	994.713	220.234	14.8403
	996.612	189.525	13.7668
	998.51	166.47	12.9023
	1000.41	145.605	12.0667
	1002.31	129.347	11.3731
	1004.21	114.751	10.7122
	1006.1	100.73	10.0364
	1008	86.5198	9.3016
	1009.9	74.3338	8.62171
	1011.8	62.114	7.88124
	1013.7	51.2921	7.16185
	1015.6	41.2903	6.42575
	1017.5	31.8748	5.64578
	1019.4	25.2257	5.02252
	1021.29	18.2394	4.27076
	1023.19	13.2495	3.63998
	1025.09	9.26146	3.04326
	1026.99	6.28644	2.50728
	1028.89	3.91322	1.97819
	1030.79	1.029	1.0144
	1032.69	-0.548309	0.740479
	1034.58	-1.27239	1.128
	1036.48	-1.82986	1.35272
	1038.38	-2.28612	1.51199
	1040.28	-2.94059	1.71482
	1042.18	-2.89679	1.702
	1044.08	-2.65278	1.62874
	1045.98	-1.72312	1.31268
	1047.87	-1.04921	1.02431
	1049.77	-0.395526	0.628909
	1051.67	0.12687	0.356188
	1053.57	0.50342	0.709521
	1055.47	1.11384	1.05539
	1057.37	1.13843	1.06697
	1059.27	1.3226	1.15004
	1061.16	1.40711	1.18622
	1063.06	2.45885	1.56807
	1064.96	3.44097	1.85498
	1066.86	4.40478	2.09876
	1068.76	5.50906	2.34714
	1070.66	6.78065	2.60397
	1072.56	8.48387	2.91271
	1074.46	8.95477	2.99245
	1076.35	9.75436	3.1232
	1078.25	9.74444	3.12161
	1080.15	10.1759	3.18996
	1082.05	10.9881	3.31483
	1083.95	12.1877	3.49109
	1085.85	13.6248	3.69118
	1087.75	15.1162	3.88795
	1089.64	16.5338	4.06618
	1091.54	18.3608	4.28495
	1093.44	20.5279	4.53077
	1095.34	23.067	4.80282
	1097.24	25.9916	5.0982
	1099.14	28.889	5.37485
	1101.04	31.9245	5.65018
	1102.93	34.562	5.87895
	1104.83	37.7693	6.14567
	1106.73	40.9269	6.39741
	1108.63	44.755	6.68992
	1110.53	48.7847	6.98461
	1112.43	52.6265	7.25441
	1114.33	55.653	7.46009
	1116.22	58.6075	7.65555
	1118.12	60.2528	7.76227
	1120.02	61.5708	7.8467
	1121.92	60.7728	7.79569
	1123.82	60.4249	7.77334
	1125.72	59.1824	7.69301
	1127.62	58.5929	7.6546
	1129.51	56.0848	7.48898
	1131.41	53.1321	7.28917
	1133.31	49.3537	7.02522
	1135.21	46.2174	6.79834
	1137.11	42.5519	6.52318
	1139.01	38.5803	6.21131
	1140.91	34.8567	5.90396
	1142.81	30.6754	5.53853
	1144.7	26.9586	5.19217
	1146.6	22.9046	4.78588
	1148.5	19.7246	4.44124
	1150.4	16.4096	4.05088
	1152.3	14.1912	3.76712
	1154.2	11.9497	3.45683
	1156.1	9.74193	3.12121
	1157.99	7.67402	2.7702
	1159.89	5.69511	2.38644
	1161.79	4.51649	2.1252
	1163.69	2.94577	1.71632
	1165.59	1.94559	1.39484
	1167.49	0.880978	0.938604
	1169.39	0.491123	0.700802
	1171.28	0.802645	0.895904
	1173.18	0.709045	0.842048
	1175.08	0.903343	0.950444
	1176.98	0.693648	0.832855
	1178.88	0.989503	0.994737
	1180.78	1.30412	1.14198
	1182.68	1.92182	1.3863
	1184.57	2.24077	1.49692
	1186.47	1.61506	1.27085
	1188.37	1.10196	1.04974
	1190.27	0.0908576	0.301426
	1192.17	-0.0222869	0.149288
	1194.07	-0.530197	0.728146
	1195.97	-0.330898	0.575237
	1197.87	1.01179	1.00588
	1199.76	2.10617	1.45127
	1201.66	4.1567	2.0388
	1203.56	6.22863	2.49572
	1205.46	9.83121	3.13548
	1207.36	14.9487	3.86635
	1209.26	21.4847	4.63516
	1211.16	33.0029	5.74481
	1213.05	47.6885	6.90568
	1214.95	72.0651	8.48912
	1216.85	100.974	10.0486
	1218.75	137.445	11.7237
	1220.65	185.957	13.6366
	1222.55	228.936	15.1306
	1224.45	277.994	16.6731
	1226.34	329.008	18.1386
	1228.24	365.993	19.1309
	1230.14	407.176	20.1786
	1232.04	447.918	21.1641
	1233.94	469.126	21.6593
	1235.84	474.888	21.7919
	1237.74	464.398	21.5499
	1239.63	432.452	20.7955
	1241.53	389.014	19.7235
	1243.43	346.256	18.6079
	1245.33	300.31	17.3295
	1247.23	255.139	15.9731
	1249.13	211.546	14.5446
	1251.03	178.586	13.3636
	1252.93	148.245	12.1756
	1254.82	128.243	11.3245
	1256.72	110.926	10.5322
	1258.62	98.5717	9.92833
	1260.52	89.1241	9.44056
	1262.42	80.5755	8.97639
	1264.32	74.6707	8.64122
	1266.22	67.7823	8.233
	1268.11	62.5566	7.90927
	1270.01	58.3119	7.63622
	1271.91	54.8811	7.40817
	1273.81	52.9885	7.27932
	1275.71	51.0535	7.14517
	1277.61	50.3005	7.09228
	1279.51	49.1281	7.00914
	1281.4	49.0289	7.00206
	1283.3	49.5486	7.03908
	1285.2	49.4573	7.03259
	1287.1	50.9029	7.13463
	1289	51.1981	7.15528
	1290.9	53.1173	7.28816
	1292.8	54.1902	7.3614
	1294.69	56.3953	7.50968
	1296.59	58.3673	7.63985
	1298.49	59.4436	7.70997
	1300.39	61.2827	7.82832
	1302.29	61.6597	7.85237
	1304.19	62.6184	7.91318
	1306.09	61.9129	7.86848
	1307.99	61.9249	7.86924
	1309.88	61.6054	7.84891
	1311.78	61.0654	7.81444
	1313.68	61.2712	7.82759
	1315.58	60.6523	7.78796
	1317.48	61.1086	7.8172
	1319.38	60.1843	7.75785
	1321.28	60.8177	7.79857
	1323.17	61.1039	7.8169
	1325.07	61.4228	7.83727
	1326.97	60.9782	7.80885
	1328.87	60.0124	7.74676
	1330.77	59.527	7.71537
	1332.67	58.1067	7.62277
	1334.57	56.6809	7.52867
	1336.46	54.51	7.38309
	1338.36	52.1251	7.21977
	1340.26	49.2529	7.01804
	1342.16	46.5989	6.82634
	1344.06	43.7358	6.61331
	1345.96	39.8285	6.31098
	1347.86	36.1831	6.01524
	1349.75	31.9076	5.64868
	1351.65	28.7369	5.36068
	1353.55	25.0652	5.00651
	1355.45	22.3739	4.73011
	1357.35	19.5274	4.41898
	1359.25	16.5953	4.07373
	1361.15	14.2574	3.7759
	1363.05	11.776	3.43161
	1364.94	9.99797	3.16196
	1366.84	8.42174	2.90202
	1368.74	6.65115	2.57898
	1370.64	5.33215	2.30914
	1372.54	3.45804	1.85958
	1374.44	2.11356	1.45381
	1376.34	0.529692	0.7278
	1378.23	-0.105436	0.324709
	1380.13	-0.663188	0.814364
	1382.03	-1.3804	1.17491
	1383.93	-1.5955	1.26313
	1385.83	-2.32718	1.52551
	1387.73	-2.2471	1.49903
	1389.63	-2.39035	1.54607
	1391.52	-2.46638	1.57047
	1393.42	-1.89804	1.37769
	1395.32	-0.925638	0.962101
	1397.22	0.484984	0.696408
	1399.12	1.9179	1.38488
	1401.02	2.90253	1.70368
	1402.92	3.98528	1.99632
	1404.81	5.43324	2.33093
	1406.71	6.92369	2.63129
	1408.61	8.44496	2.90602
	1410.51	9.91921	3.14948
	1412.41	11.3368	3.36701
	1414.31	12.7499	3.5707
	1416.21	13.7145	3.70331
	1418.11	15.493	3.93611
	1420	16.9396	4.11577
	1421.9	18.4197	4.29182
	1423.8	19.4187	4.40667
	1425.7	19.8726	4.45786
	1427.6	19.979	4.46979
	1429.5	19.8018	4.44992
	1431.4	19.1908	4.38073
	1433.29	17.8962	4.23039
	1435.19	16.3134	4.03898
	1437.09	14.6057	3.82174
	1438.99	13.1961	3.63264
	1440.89	11.9554	3.45766
	1442.79	10.6908	3.26968
	1444.69	8.96983	2.99497
	1446.58	7.10658	2.66582
	1448.48	5.67762	2.38277
	1450.38	4.36758	2.08988
	1452.28	3.30396	1.81768
	1454.18	2.5631	1.60097
	1456.08	2.00734	1.41681
	1457.98	1.60577	1.26719
	1459.87	1.02987	1.01482
	1461.77	0.70717	0.840934
	1463.67	0.596712	0.772472
	1465.57	0.17174	0.414415
	1467.47	-0.12409	0.352265
	1469.37	-0.385285	0.620713
	1471.27	-0.639704	0.799815
	1473.17	-0.908403	0.953102
	1475.06	-0.897471	0.947349
	1476.96	-1.24776	1.11703
	1478.86	-0.951999	0.975705
	1480.76	-0.871955	0.933786
	1482.66	-0.718523	0.847657
	1484.56	-0.491686	0.701203
	1486.46	-0.238767	0.488638
	1488.35	-0.212275	0.460733
	1490.25	-0.217531	0.466402
	1492.15	-0.598114	0.773379
	1494.05	-0.470465	0.685905
	1495.95	-0.343147	0.585787
	1497.85	-0.326684	0.571562
	1499.75	-0.0658909	0.256692
	1501.64	-0.0119216	0.109186
	1503.54	0.486912	0.697791
	1505.44	0.592747	0.769901
	1507.34	0.873326	0.934519
	1509.24	0.652173	0.807572
	1511.14	0.390533	0.624926
	1513.04	-0.24004	0.489939
	1514.93	-0.218323	0.46725
	1516.83	0.602497	0.776207
	1518.73	1.69571	1.30219
	1520.63	2.12841	1.45891
	1522.53	2.25841	1.5028
	1524.43	2.41288	1.55334
	1526.33	2.71425	1.6475
	1528.23	2.96319	1.72139
	1530.12	2.97502	1.72482
	1532.02	2.99656	1.73106
	1533.92	2.87052	1.69426
	1535.82	2.93012	1.71176
	1537.72	2.83869	1.68484
	1539.62	2.56328	1.60103
	1541.52	2.20917	1.48633
	1543.41	1.81672	1.34786
	1545.31	1.89587	1.37691
	1547.21	1.22694	1.10767
	1549.11	1.05223	1.02578
	1551.01	0.815102	0.90283
	1552.91	1.1531	1.07383
	1554.81	1.11411	1.05551
	1556.7	1.18841	1.09014
	1558.6	0.823113	0.907256
	1560.5	0.742514	0.861693
	1562.4	0.315083	0.561322
	1564.3	0.0947439	0.307805
	1566.2	-0.0068915	0.0830151
	1568.1	-0.0753386	0.274479
	1569.99	-0.170121	0.412457
	1571.89	-0.343753	0.586304
	1573.79	-0.135374	0.367932
	1575.69	0.114795	0.338814
	1577.59	0.148635	0.385532
	1579.49	0.294168	0.542372
	1581.39	0.379625	0.616137
	1583.29	0.577208	0.759742
	1585.18	0.145537	0.381494
	1587.08	0.0173623	0.131766
	1588.98	0.0882534	0.297075
	1590.88	0.534004	0.730756
	1592.78	0.993825	0.996908
	1594.68	1.45682	1.20699
	1596.58	1.84282	1.3575
	1598.47	1.89137	1.37527
	1600.37	2.15246	1.46713
	1602.27	2.55689	1.59903
	1604.17	2.89444	1.70131
	1606.07	3.17877	1.78291
	1607.97	3.56875	1.88911
	1609.87	3.82942	1.95689
	1611.76	3.95639	1.98907
	1613.66	4.34808	2.08521
	1615.56	5.18228	2.27646
	1617.46	5.7752	2.40317
	1619.36	6.70267	2.58895
	1621.26	7.53513	2.74502
	1623.16	8.8124	2.96857
	1625.05	9.75913	3.12396
	1626.95	10.5639	3.25022
	1628.85	11.2525	3.35448
	1630.75	12.1917	3.49166
	1632.65	12.9658	3.6008
	1634.55	14.0696	3.75095
	1636.45	14.6813	3.83162
	1638.34	15.1743	3.89542
	1640.24	15.6225	3.95253
	1642.14	15.9654	3.99567
	1644.04	16.2839	4.03533
