Generated file C:/Users/didvk/OneDrive - University of Florida/UF_Isaiah_06-16-2020-Tue/Analysis/Re0.1Mo0.9B2/Re0.1Mo0.9B2_HPXRD_run2_300_20220710 - Copy/mask&dat&fxye_4position/18_ReMoB2_60p0GPa_300psi_release_P1_C4_D1w_126.fxye using DIOPTAS
# == pyFAI calibration ==
# Distance Sample to Detector: 0.2103851508954585 m
# PONI: 8.889e-02, 8.665e-02 m
# Rotations: 0.008634 -0.000915 0.000000 rad
# 
# == Fit2d calibration ==
# Distance Sample-beamCenter: 210.393 mm
# Center: x=493.236, y=515.685 pix
# Tilt: 0.497 deg  TiltPlanRot: -173.953 deg
# 
# Detector Detector	 Spline= None	 PixelSize= 1.720e-04, 1.720e-04 m
#    Detector has a mask: False 
#    Detector has a dark current: False 
#    detector has a flat field: False 
# 
# Wavelength: 4.133e-11 m
# Mask applied: None
# Dark current applied: None
# Flat field applied: None
# Polarization factor: None
# Normalization factor: None
BANK	1	1129	1129 CONS	282.731	1.89862 0.4133 0.0 FXYE
	282.731	0.0633597	0.251714
	284.629	0.86705	0.931155
	286.528	1.24375	1.11524
	288.427	1.09556	1.04669
	290.325	0.709676	0.842423
	292.224	0.507299	0.71225
	294.122	0.142437	0.377408
	296.021	1.19769	1.09439
	297.92	1.81232	1.34622
	299.818	2.31676	1.52209
	301.717	1.85869	1.36334
	303.616	1.00575	1.00287
	305.514	0.699192	0.836177
	307.413	0.687066	0.828894
	309.311	1.73625	1.31767
	311.21	1.99463	1.41231
	313.109	1.42807	1.19502
	315.007	0.501153	0.707922
	316.906	0.3203	0.565951
	318.805	0.169627	0.411858
	320.703	0.643458	0.802158
	322.602	1.01837	1.00914
	324.5	0.984149	0.992043
	326.399	1.16215	1.07803
	328.298	1.70372	1.30526
	330.196	2.27733	1.50908
	332.095	2.9369	1.71374
	333.993	3.37373	1.83677
	335.892	4.01218	2.00304
	337.791	4.46815	2.1138
	339.689	5.22615	2.28608
	341.588	6.68792	2.5861
	343.487	8.42478	2.90255
	345.385	10.9864	3.31457
	347.284	14.796	3.84655
	349.182	19.5085	4.41684
	351.081	23.9594	4.89484
	352.98	26.4388	5.14187
	354.878	25.3775	5.03761
	356.777	22.292	4.72144
	358.676	17.1695	4.14361
	360.574	12.5096	3.53689
	362.473	8.44995	2.90688
	364.371	5.67056	2.38129
	366.27	4.02036	2.00508
	368.169	2.94288	1.71548
	370.067	2.33377	1.52767
	371.966	1.94407	1.3943
	373.864	2.03299	1.42583
	375.763	2.02135	1.42174
	377.662	2.03135	1.42526
	379.56	2.0837	1.4435
	381.459	1.89506	1.37661
	383.358	1.60778	1.26798
	385.256	1.51251	1.22984
	387.155	1.48913	1.2203
	389.053	1.18771	1.08982
	390.952	1.4131	1.18874
	392.851	1.58611	1.25941
	394.749	1.77543	1.33245
	396.648	1.66879	1.29182
	398.547	0.840195	0.916621
	400.445	0.482538	0.69465
	402.344	0.455027	0.674557
	404.242	0.693494	0.832763
	406.141	0.638146	0.79884
	408.04	-0.0428691	0.207049
	409.938	0.170604	0.413042
	411.837	0.205959	0.453827
	413.735	0.062143	0.249285
	415.634	0.297875	0.545779
	417.533	0.544582	0.737958
	419.431	1.165	1.07935
	421.33	0.946881	0.973078
	423.229	0.693146	0.832554
	425.127	0.338694	0.581975
	427.026	0.34734	0.589356
	428.924	0.164896	0.406073
	430.823	0.857351	0.925933
	432.722	0.685598	0.828008
	434.62	0.275733	0.525103
	436.519	0.779524	0.882907
	438.418	0.855085	0.924708
	440.316	0.671258	0.819304
	442.215	0.0796683	0.282256
	444.113	0.292689	0.541007
	446.012	0.598219	0.773446
	447.911	0.333348	0.577363
	449.809	0.329764	0.574251
	451.708	0.762222	0.873053
	453.606	1.05996	1.02954
	455.505	0.626574	0.791564
	457.404	0.734854	0.857236
	459.302	1.00353	1.00176
	461.201	0.707414	0.841079
	463.1	0.32299	0.568322
	464.998	-0.104491	0.32325
	466.897	-0.157688	0.397099
	468.795	0.463867	0.681078
	470.694	0.842914	0.918103
	472.593	2.0925	1.44655
	474.491	2.4658	1.57029
	476.39	2.26886	1.50627
	478.289	1.49595	1.22309
	480.187	1.07888	1.03869
	482.086	0.740801	0.860698
	483.984	0.55368	0.744097
	485.883	0.298593	0.546437
	487.782	0.321847	0.567316
	489.68	1.02752	1.01367
	491.579	1.29828	1.13942
	493.478	1.92703	1.38817
	495.376	1.03403	1.01687
	497.275	0.195329	0.44196
	499.173	-0.177885	0.421764
	501.072	0.357766	0.598135
	502.971	0.962574	0.981109
	504.869	1.36018	1.16627
	506.768	1.67975	1.29605
	508.666	1.41571	1.18984
	510.565	1.28366	1.13299
	512.464	0.942538	0.970844
	514.362	0.789592	0.88859
	516.261	0.634566	0.796596
	518.16	0.451212	0.671723
	520.058	0.00474286	0.0688685
	521.957	-0.122344	0.349777
	523.855	0.282781	0.531772
	525.754	1.12233	1.0594
	527.653	1.66255	1.2894
	529.551	1.27473	1.12904
	531.45	0.746084	0.863761
	533.349	0.669503	0.818232
	535.247	0.865963	0.930571
	537.146	0.667397	0.816944
	539.044	0.605703	0.778269
	540.943	0.162467	0.403072
	542.842	0.430913	0.656439
	544.74	0.186594	0.431966
	546.639	0.301507	0.549097
	548.537	0.403191	0.634973
	550.436	0.31186	0.558444
	552.335	0.534683	0.73122
	554.233	0.0612458	0.247479
	556.132	-0.157809	0.397252
	558.031	-0.293816	0.542048
	559.929	-0.0356268	0.188751
	561.828	0.386136	0.621398
	563.726	0.702872	0.838375
	565.625	0.898233	0.947752
	567.524	0.373081	0.610803
	569.422	0.0724136	0.269098
	571.321	0.304578	0.551886
	573.22	1.12027	1.05843
	575.118	1.4255	1.19394
	577.017	1.68607	1.29849
	578.915	1.61592	1.27119
	580.814	1.69102	1.30039
	582.713	0.890997	0.943926
	584.611	0.365907	0.604902
	586.51	0.187226	0.432696
	588.408	0.852108	0.923097
	590.307	0.774809	0.880233
	592.206	0.747162	0.864386
	594.104	0.857143	0.92582
	596.003	1.49615	1.22317
	597.902	2.12326	1.45714
	599.8	2.53276	1.59147
	601.699	2.66482	1.63243
	603.597	2.85373	1.6893
	605.496	2.37231	1.54023
	607.395	1.474	1.21408
	609.293	0.839363	0.916167
	611.192	0.432031	0.65729
	613.091	0.545314	0.738454
	614.989	0.578793	0.760784
	616.888	0.51828	0.719917
	618.786	-0.0350047	0.187096
	620.685	0.140231	0.374475
	622.584	0.437488	0.661429
	624.482	0.424169	0.651282
	626.381	0.179918	0.424168
	628.279	0.177715	0.421563
	630.178	0.863787	0.929401
	632.077	1.51967	1.23275
	633.975	2.63331	1.62275
	635.874	4.63531	2.15298
	637.773	7.10244	2.66504
	639.671	9.7224	3.11808
	641.57	12.0964	3.47799
	643.468	13.8089	3.71604
	645.367	14.3926	3.79375
	647.266	12.7509	3.57084
	649.164	10.1874	3.19177
	651.063	7.1763	2.67886
	652.962	4.88786	2.21085
	654.86	2.84367	1.68632
	656.759	2.22622	1.49205
	658.657	2.10145	1.44964
	660.556	2.08202	1.44292
	662.455	2.27681	1.50891
	664.353	2.49638	1.58
	666.252	2.95466	1.71891
	668.15	3.83238	1.95765
	670.049	5.12426	2.26368
	671.948	6.75504	2.59905
	673.846	9.01075	3.00179
	675.745	11.4898	3.38966
	677.644	14.2529	3.77531
	679.542	17.0049	4.1237
	681.441	19.1924	4.38092
	683.339	21.1805	4.60223
	685.238	22.8274	4.77781
	687.137	24.7836	4.97831
	689.035	27.1874	5.21415
	690.934	31.1276	5.57922
	692.833	37.5615	6.12874
	694.731	47.7374	6.90923
	696.63	61.572	7.84678
	698.528	79.2955	8.9048
	700.427	100.069	10.0035
	702.326	122.718	11.0778
	704.224	141.482	11.8946
	706.123	154.872	12.4447
	708.021	156.889	12.5256
	709.92	149.433	12.2243
	711.819	133.663	11.5613
	713.717	113.711	10.6635
	715.616	93.4803	9.66852
	717.515	75.4668	8.68716
	719.413	59.3604	7.70457
	721.312	46.3872	6.81081
	723.21	35.9748	5.9979
	725.109	27.5481	5.24862
	727.008	20.9815	4.58056
	728.906	15.8292	3.97859
	730.805	12.3096	3.5085
	732.704	9.75375	3.1231
	734.602	7.74724	2.78339
	736.501	6.89942	2.62668
	738.399	6.33057	2.51606
	740.298	5.55687	2.3573
	742.197	4.84154	2.20035
	744.095	4.31054	2.07618
	745.994	3.86647	1.96633
	747.892	3.31189	1.81986
	749.791	2.70383	1.64433
	751.69	1.72422	1.3131
	753.588	1.45557	1.20647
	755.487	1.15101	1.07285
	757.386	1.01076	1.00537
	759.284	0.817559	0.90419
	761.183	0.554457	0.744618
	763.081	0.607087	0.779158
	764.98	0.787811	0.887587
	766.879	0.808855	0.899363
	768.777	0.70223	0.837992
	770.676	0.409022	0.639548
	772.575	0.460232	0.678404
	774.473	0.0271876	0.164887
	776.372	-0.0663643	0.257613
	778.27	-0.1836	0.428486
	780.169	-0.381006	0.617257
	782.068	-0.472924	0.687694
	783.966	-0.355015	0.595832
	785.865	-0.216776	0.465592
	787.764	0.0871875	0.295275
	789.662	0.662469	0.813922
	791.561	1.38925	1.17867
	793.459	1.67408	1.29386
	795.358	1.29733	1.139
	797.257	1.12372	1.06005
	799.155	0.66739	0.816939
	801.054	0.634271	0.796412
	802.952	0.596701	0.772464
	804.851	0.756868	0.869982
	806.75	0.807485	0.898602
	808.648	0.596763	0.772504
	810.547	0.265882	0.515638
	812.446	-0.211224	0.459591
	814.344	-0.0752185	0.27426
	816.243	0.626576	0.791565
	818.141	0.967836	0.983787
	820.04	0.866252	0.930727
	821.939	0.370626	0.608791
	823.837	0.0416613	0.204111
	825.736	0.196857	0.443686
	827.635	0.657296	0.810738
	829.533	1.03618	1.01793
	831.432	1.15285	1.07371
	833.33	1.03818	1.01891
	835.229	0.989959	0.994967
	837.128	0.773199	0.879317
	839.026	0.707405	0.841073
	840.925	0.38108	0.617317
	842.823	0.570993	0.755641
	844.722	0.41393	0.643374
	846.621	0.257818	0.507758
	848.519	0.152432	0.390426
	850.418	0.425793	0.652528
	852.317	0.628994	0.793091
	854.215	0.357334	0.597774
	856.114	-0.110063	0.331757
	858.012	-0.158611	0.39826
	859.911	-0.287098	0.535816
	861.81	-0.174057	0.417202
	863.708	-0.101588	0.318728
	865.607	-0.0490731	0.221525
	867.506	-0.0301698	0.173695
	869.404	0.163437	0.404273
	871.303	-0.212817	0.461321
	873.201	-0.409292	0.639759
	875.1	-0.674897	0.821521
	876.999	-0.70109	0.837311
	878.897	-0.631572	0.794715
	880.796	-0.745089	0.863185
	882.694	-0.519398	0.720693
	884.593	-0.0131883	0.11484
	886.492	0.934088	0.966482
	888.39	1.80975	1.34527
	890.289	2.71485	1.64768
	892.188	3.32035	1.82218
	894.086	4.37712	2.09216
	895.985	5.6576	2.37857
	897.883	7.33598	2.7085
	899.782	8.89089	2.98176
	901.681	11.5688	3.40129
	903.579	14.8955	3.85948
	905.478	19.0485	4.36446
	907.377	24.4021	4.93985
	909.275	31.0295	5.57041
	911.174	39.9291	6.31894
	913.072	52.9527	7.27686
	914.971	72.1031	8.49135
	916.87	98.6882	9.93419
	918.768	144.02	12.0008
	920.667	214.384	14.6419
	922.565	319.929	17.8865
	924.464	467.544	21.6228
	926.363	646.207	25.4206
	928.261	809.833	28.4576
	930.16	920.151	30.334
	932.059	953.938	30.8859
	933.957	910.997	30.1827
	935.856	826.169	28.7431
	937.754	713.016	26.7024
	939.653	615.264	24.8045
	941.552	538.563	23.207
	943.45	479.515	21.8978
	945.349	448.607	21.1803
	947.248	435.456	20.8676
	949.146	438.279	20.9351
	951.045	456.63	21.3689
	952.943	488.403	22.0999
	954.842	531.123	23.0461
	956.741	572.52	23.9274
	958.639	598.878	24.472
	960.538	609.546	24.689
	962.436	607.797	24.6535
	964.335	599.953	24.4939
	966.234	580.981	24.1036
	968.132	551.423	23.4824
	970.031	515.846	22.7123
	971.93	476.914	21.8384
	973.828	432.292	20.7916
	975.727	388.138	19.7012
	977.625	341.892	18.4903
	979.524	299.754	17.3134
	981.423	260.298	16.1337
	983.321	225.88	15.0293
	985.22	196.071	14.0025
	987.119	170.491	13.0572
	989.017	149.618	12.2318
	990.916	129.19	11.3662
	992.814	110.007	10.4884
	994.713	93.5101	9.67006
	996.612	79.1064	8.89418
	998.51	65.9447	8.12064
	1000.41	54.7551	7.39967
	1002.31	44.3817	6.66196
	1004.21	35.3415	5.94487
	1006.1	27.7437	5.26722
	1008	20.6734	4.5468
	1009.9	16.3541	4.04402
	1011.8	11.7965	3.43461
	1013.7	8.89263	2.98205
	1015.6	6.35902	2.52171
	1017.5	4.37488	2.09162
	1019.4	3.1325	1.76989
	1021.29	1.5435	1.24237
	1023.19	0.102247	0.319761
	1025.09	-1.28034	1.13152
	1026.99	-2.14462	1.46445
	1028.89	-2.06113	1.43566
	1030.79	-2.98315	1.72718
	1032.69	-2.93801	1.71406
	1034.58	-2.73025	1.65235
	1036.48	-2.22289	1.49093
	1038.38	-1.26261	1.12366
	1040.28	-0.414284	0.643649
	1042.18	0.698104	0.835526
	1044.08	1.31677	1.1475
	1045.98	1.52785	1.23606
	1047.87	1.55269	1.24607
	1049.77	1.97165	1.40416
	1051.67	2.13384	1.46077
	1053.57	2.46873	1.57122
	1055.47	3.1827	1.78401
	1057.37	3.92104	1.98016
	1059.27	5.47753	2.34041
	1061.16	6.82706	2.61287
	1063.06	8.46088	2.90876
	1064.96	9.10249	3.01703
	1066.86	9.57039	3.0936
	1068.76	10.0149	3.16464
	1070.66	10.4709	3.23588
	1072.56	11.4597	3.38521
	1074.46	12.5293	3.53968
	1076.35	14.2698	3.77754
	1078.25	15.7925	3.97398
	1080.15	17.3296	4.16288
	1082.05	18.7772	4.33326
	1083.95	20.4774	4.52519
	1085.85	22.3922	4.73204
	1087.75	24.3974	4.93937
	1089.64	26.3402	5.13227
	1091.54	28.3609	5.32549
	1093.44	30.4113	5.51465
	1095.34	32.2569	5.67952
	1097.24	34.5344	5.8766
	1099.14	36.8948	6.07411
	1101.04	39.4115	6.27786
	1102.93	42.1997	6.49613
	1104.83	44.2244	6.65014
	1106.73	46.3316	6.80674
	1108.63	47.2372	6.87293
	1110.53	48.4678	6.96188
	1112.43	48.4448	6.96023
	1114.33	47.4129	6.8857
	1116.22	45.617	6.75403
	1118.12	42.9223	6.55151
	1120.02	39.3938	6.27645
	1121.92	36.2449	6.02038
	1123.82	33.2153	5.76327
	1125.72	30.0904	5.48547
	1127.62	26.8997	5.1865
	1129.51	23.4672	4.8443
	1131.41	20.6275	4.54175
	1133.31	17.4867	4.18171
	1135.21	14.4558	3.80208
	1137.11	10.8044	3.28701
	1139.01	7.31334	2.70432
	1140.91	4.82376	2.19631
	1142.81	2.6666	1.63297
	1144.7	1.11667	1.05673
	1146.6	-0.555137	0.745075
	1148.5	-1.66259	1.28941
	1150.4	-2.728	1.65167
	1152.3	-1.70606	1.30616
	1154.2	-0.311877	0.558459
	1156.1	0.658419	0.81143
	1157.99	1.76867	1.32991
	1159.89	2.70696	1.64528
	1161.79	4.17435	2.04312
	1163.69	4.69388	2.16654
	1165.59	5.26157	2.29381
	1167.49	5.27051	2.29576
	1169.39	5.62957	2.37267
	1171.28	6.8707	2.6212
	1173.18	8.42168	2.90201
	1175.08	11.1274	3.33578
	1176.98	14.1377	3.76001
	1178.88	17.4012	4.17148
	1180.78	21.4011	4.62613
	1182.68	26.2466	5.12314
	1184.57	32.9327	5.7387
	1186.47	41.0239	6.40499
	1188.37	50.9206	7.13586
	1190.27	64.5812	8.03624
	1192.17	81.3653	9.02027
	1194.07	106.788	10.3338
	1195.97	142.47	11.9361
	1197.87	189.612	13.77
	1199.76	267.884	16.3672
	1201.66	358.783	18.9416
	1203.56	488.015	22.0911
	1205.46	625.11	25.0022
	1207.36	736.747	27.1431
	1209.26	794.593	28.1885
	1211.16	794.486	28.1866
	1213.05	740.462	27.2114
	1214.95	651.637	25.5272
	1216.85	568.196	23.8369
	1218.75	489.578	22.1264
	1220.65	432.099	20.787
	1222.55	382.69	19.5625
	1224.45	346.485	18.6141
	1226.34	318.097	17.8353
	1228.24	293.304	17.1261
	1230.14	268.368	16.3819
	1232.04	244.155	15.6255
	1233.94	213.764	14.6207
	1235.84	183.178	13.5343
	1237.74	152.754	12.3594
	1239.63	125.007	11.1806
	1241.53	101.88	10.0936
	1243.43	82.9828	9.10949
	1245.33	69.828	8.35631
	1247.23	58.9973	7.68097
	1249.13	50.662	7.11773
	1251.03	45.5741	6.75086
	1252.93	41.6259	6.45182
	1254.82	39.1922	6.26037
	1256.72	36.0995	6.00829
	1258.62	33.7094	5.80598
	1260.52	32.8166	5.72858
	1262.42	31.7525	5.63493
	1264.32	31.6865	5.62907
	1266.22	30.5908	5.53089
	1268.11	30.2867	5.50333
	1270.01	29.4157	5.42363
	1271.91	28.8716	5.37323
	1273.81	28.3624	5.32564
	1275.71	27.5993	5.2535
	1277.61	27.4826	5.24238
	1279.51	27.138	5.20942
	1281.4	27.0168	5.19777
	1283.3	27.1088	5.20661
	1285.2	27.6661	5.25986
	1287.1	28.3145	5.32114
	1289	28.629	5.35061
	1290.9	29.156	5.39963
	1292.8	29.7412	5.45355
	1294.69	30.2617	5.50106
	1296.59	30.1084	5.48711
	1298.49	29.706	5.45032
	1300.39	29.4499	5.42677
	1302.29	29.5036	5.43172
	1304.19	29.6405	5.44431
	1306.09	29.4554	5.42728
	1307.99	28.897	5.37559
	1309.88	28.0859	5.29962
	1311.78	28.3838	5.32765
	1313.68	28.6769	5.35508
	1315.58	28.2173	5.312
	1317.48	27.801	5.27267
	1319.38	27.9263	5.28453
	1321.28	28.418	5.33086
	1323.17	28.4428	5.33318
	1325.07	27.8429	5.27663
	1326.97	26.9979	5.19595
	1328.87	26.0112	5.10012
	1330.77	25.2016	5.02012
	1332.67	23.5507	4.85291
	1334.57	21.8537	4.67479
	1336.46	19.8298	4.45307
	1338.36	17.8333	4.22295
	1340.26	15.6315	3.95367
	1342.16	13.585	3.68578
	1344.06	12.0018	3.46436
	1345.96	10.5299	3.24499
	1347.86	8.96836	2.99472
	1349.75	7.19961	2.68321
	1351.65	5.95027	2.43932
	1353.55	4.16461	2.04074
	1355.45	2.77637	1.66624
	1357.35	1.76754	1.32949
	1359.25	1.12816	1.06215
	1361.15	0.0247205	0.157228
	1363.05	-0.890519	0.943673
	1364.94	-1.12671	1.06147
	1366.84	-1.38779	1.17804
	1368.74	-1.9633	1.40118
	1370.64	-2.5164	1.58632
	1372.54	-2.857	1.69027
	1374.44	-2.63568	1.62348
	1376.34	-2.30764	1.51909
	1378.23	-1.54585	1.24332
	1380.13	-0.763455	0.873759
	1382.03	-0.126851	0.356162
	1383.93	0.59703	0.772677
	1385.83	1.56238	1.24995
	1387.73	2.49794	1.58049
	1389.63	3.77738	1.94355
	1391.52	4.91659	2.21734
	1393.42	5.86048	2.42084
	1395.32	6.59292	2.56767
	1397.22	7.71458	2.77751
	1399.12	9.07932	3.01319
	1401.02	10.3342	3.21468
	1402.92	11.4068	3.37739
	1404.81	12.2175	3.49536
	1406.71	13.2058	3.63398
	1408.61	14.0722	3.75129
	1410.51	14.9516	3.86673
	1412.41	15.0717	3.88222
	1414.31	15.4201	3.92684
	1416.21	15.3745	3.92104
	1418.11	15.0599	3.88071
	1420	14.2627	3.7766
	1421.9	13.195	3.63249
	1423.8	11.8759	3.44614
	1425.7	10.3749	3.22101
	1427.6	9.10318	3.01715
	1429.5	7.92174	2.81456
	1431.4	6.78657	2.6051
	1433.29	5.51684	2.34879
	1435.19	4.66661	2.16023
	1437.09	3.89283	1.97303
	1438.99	2.81228	1.67698
	1440.89	2.07744	1.44133
	1442.79	1.85502	1.36199
	1444.69	1.89491	1.37656
	1446.58	1.62478	1.27467
	1448.48	1.11182	1.05443
	1450.38	0.245701	0.495682
	1452.28	-0.0486519	0.220572
	1454.18	-0.228159	0.47766
	1456.08	-0.253003	0.502994
	1457.98	-0.379416	0.615967
	1459.87	-0.0762724	0.276175
	1461.77	-0.013606	0.116645
	1463.67	-0.325239	0.570297
	1465.57	-0.533911	0.730692
	1467.47	-0.511314	0.715062
	1469.37	-0.605615	0.778213
	1471.27	-0.467992	0.684099
	1473.17	-0.25823	0.508163
	1475.06	-0.127346	0.356856
	1476.96	-0.237592	0.487434
	1478.86	-0.452549	0.672718
	1480.76	-0.395693	0.629041
	1482.66	-0.736952	0.858459
	1484.56	-0.75268	0.867571
	1486.46	-0.64851	0.805301
	1488.35	-0.137139	0.370322
	1490.25	0.0105658	0.10279
	1492.15	0.244838	0.494812
	1494.05	0.239247	0.489129
	1495.95	0.106955	0.32704
	1497.85	0.0186088	0.136414
	1499.75	0.0882033	0.29699
	1501.64	0.376469	0.613571
	1503.54	0.680009	0.824627
	1505.44	0.654091	0.808759
	1507.34	0.847506	0.920601
	1509.24	0.813478	0.90193
	1511.14	1.10589	1.05161
	1513.04	0.862031	0.928456
	1514.93	0.66111	0.813087
	1516.83	0.685198	0.827767
	1518.73	1.20738	1.09881
	1520.63	1.40934	1.18715
	1522.53	1.22324	1.106
	1524.43	0.868525	0.931947
	1526.33	0.366297	0.605224
	1528.23	0.39145	0.625659
	1530.12	0.742514	0.861692
	1532.02	0.522461	0.722815
	1533.92	0.446017	0.667845
	1535.82	0.460104	0.67831
	1537.72	0.0832696	0.288565
	1539.62	-0.104884	0.323857
	1541.52	-0.219175	0.468161
	1543.41	-0.157329	0.396648
	1545.31	0.229125	0.47867
	1547.21	0.470108	0.685644
	1549.11	0.333788	0.577744
	1551.01	0.232374	0.482052
	1552.91	0.246057	0.496041
	1554.81	0.377561	0.61446
	1556.7	0.483767	0.695533
	1558.6	0.654088	0.808757
	1560.5	0.842961	0.918129
	1562.4	0.502726	0.709031
	1564.3	0.296401	0.544427
	1566.2	0.57012	0.755063
	1568.1	0.619304	0.786958
	1569.99	0.690032	0.830682
	1571.89	0.59355	0.770422
	1573.79	0.674068	0.821016
	1575.69	0.731875	0.855497
	1577.59	1.08796	1.04305
	1579.49	1.74551	1.32118
	1581.39	2.14872	1.46585
	1583.29	2.32321	1.52421
	1585.18	2.21384	1.4879
	1587.08	2.71337	1.64723
	1588.98	3.32503	1.82347
	1590.88	4.36886	2.09018
	1592.78	5.64902	2.37677
	1594.68	7.3157	2.70475
	1596.58	8.47902	2.91188
	1598.47	9.86976	3.14162
	1600.37	11.569	3.40133
	1602.27	13.4961	3.6737
	1604.17	15.7129	3.96395
	1606.07	18.2128	4.26765
	1607.97	20.676	4.54709
	1609.87	23.5197	4.84972
	1611.76	26.1709	5.11575
	1613.66	29.1454	5.39865
	1615.56	31.7795	5.63733
	1617.46	34.5917	5.88147
	1619.36	37.0766	6.08906
	1621.26	38.2487	6.18455
	1623.16	39.32	6.27056
	1625.05	39.7348	6.30355
	1626.95	39.4536	6.28121
	1628.85	38.8452	6.23259
	1630.75	37.5448	6.12738
	1632.65	36.1378	6.01147
	1634.55	33.9528	5.8269
	1636.45	32.3608	5.68866
	1638.34	30.3761	5.51145
	1640.24	28.6529	5.35284
	1642.14	26.7581	5.17282
	1644.04	25.3864	5.03849
