Generated file C:/Users/didvk/OneDrive - University of Florida/UF_Isaiah_06-16-2020-Tue/Analysis/Re0.1Mo0.9B2/Re0.1Mo0.9B2_HPXRD_run2_300_20220710 - Copy/mask&dat&fxye_4position/21_ReMoB2_25p0GPa_0psi_release_P1_C4_D1w_144.fxye using DIOPTAS
# == pyFAI calibration ==
# Distance Sample to Detector: 0.2103851508954585 m
# PONI: 8.889e-02, 8.665e-02 m
# Rotations: 0.008634 -0.000915 0.000000 rad
# 
# == Fit2d calibration ==
# Distance Sample-beamCenter: 210.393 mm
# Center: x=493.236, y=515.685 pix
# Tilt: 0.497 deg  TiltPlanRot: -173.953 deg
# 
# Detector Detector	 Spline= None	 PixelSize= 1.720e-04, 1.720e-04 m
#    Detector has a mask: False 
#    Detector has a dark current: False 
#    detector has a flat field: False 
# 
# Wavelength: 4.133e-11 m
# Mask applied: None
# Dark current applied: None
# Flat field applied: None
# Polarization factor: None
# Normalization factor: None
BANK	1	1129	1129 CONS	282.731	1.89862 0.4133 0.0 FXYE
	282.731	0.577224	0.759752
	284.629	0.730898	0.854926
	286.528	0.345366	0.587678
	288.427	0.150177	0.387526
	290.325	0.51436	0.717189
	292.224	1.1712	1.08222
	294.122	1.62103	1.2732
	296.021	1.63286	1.27783
	297.92	1.18017	1.08635
	299.818	0.499475	0.706736
	301.717	-0.18909	0.434845
	303.616	-0.296157	0.544203
	305.514	0.523853	0.723777
	307.413	0.969933	0.984852
	309.311	1.29737	1.13902
	311.21	1.51331	1.23016
	313.109	1.43125	1.19635
	315.007	1.63084	1.27704
	316.906	1.30533	1.14251
	318.805	1.50827	1.22812
	320.703	1.78893	1.33751
	322.602	1.9454	1.39478
	324.5	2.21827	1.48938
	326.399	2.12602	1.45809
	328.298	2.57921	1.60599
	330.196	3.20173	1.78934
	332.095	4.58143	2.14043
	333.993	6.00241	2.44998
	335.892	7.25657	2.6938
	337.791	8.58531	2.93007
	339.689	10.811	3.28801
	341.588	13.9962	3.74115
	343.487	17.8088	4.22004
	345.385	20.8858	4.5701
	347.284	21.9036	4.68013
	349.182	20.2101	4.49557
	351.081	16.5081	4.06302
	352.98	12.2829	3.5047
	354.878	8.63431	2.93842
	356.777	6.29898	2.50978
	358.676	5.09321	2.25681
	360.574	3.91788	1.97936
	362.473	3.3818	1.83897
	364.371	3.10216	1.76129
	366.27	3.26154	1.80597
	368.169	2.67214	1.63467
	370.067	2.2241	1.49134
	371.966	2.22888	1.49294
	373.864	2.14129	1.46332
	375.763	1.93468	1.39093
	377.662	1.46933	1.21216
	379.56	1.59417	1.26261
	381.459	1.69393	1.30151
	383.358	1.54498	1.24297
	385.256	1.43086	1.19619
	387.155	1.07532	1.03698
	389.053	0.66807	0.817356
	390.952	0.746339	0.863909
	392.851	0.76183	0.872829
	394.749	0.967087	0.983406
	396.648	0.866992	0.931124
	398.547	0.833212	0.912804
	400.445	0.923218	0.960842
	402.344	0.749404	0.865681
	404.242	0.529261	0.727503
	406.141	0.584068	0.764243
	408.04	0.416295	0.645209
	409.938	1.00516	1.00258
	411.837	1.06265	1.03085
	413.735	1.75592	1.32511
	415.634	1.78562	1.33627
	417.533	1.25346	1.11958
	419.431	0.836903	0.914824
	421.33	0.387595	0.622571
	423.229	0.356019	0.596673
	425.127	0.0718944	0.268131
	427.026	0.395159	0.628617
	428.924	0.555554	0.745355
	430.823	0.865958	0.930569
	432.722	1.1277	1.06193
	434.62	0.711382	0.843434
	436.519	0.751614	0.866957
	438.418	0.267374	0.517082
	440.316	0.302189	0.549717
	442.215	0.197962	0.444929
	444.113	-0.0657013	0.256323
	446.012	-0.245949	0.495932
	447.911	-0.363837	0.603189
	449.809	-0.180944	0.425375
	451.708	0.381151	0.617375
	453.606	0.331273	0.575563
	455.505	0.206887	0.454848
	457.404	0.108011	0.32865
	459.302	0.142207	0.377104
	461.201	0.508759	0.713273
	463.1	0.906832	0.952277
	464.998	1.15104	1.07286
	466.897	1.193	1.09225
	468.795	0.808032	0.898906
	470.694	0.734517	0.85704
	472.593	0.606856	0.77901
	474.491	0.200703	0.447999
	476.39	0.258934	0.508856
	478.289	0.272276	0.521801
	480.187	0.680426	0.824879
	482.086	1.17765	1.0852
	483.984	1.40991	1.1874
	485.883	1.27653	1.12984
	487.782	1.42593	1.19412
	489.68	1.33903	1.15717
	491.579	1.67297	1.29343
	493.478	1.79149	1.33847
	495.376	1.47225	1.21336
	497.275	1.00311	1.00155
	499.173	0.591025	0.768782
	501.072	0.354021	0.594997
	502.971	0.352431	0.593659
	504.869	0.668689	0.817734
	506.768	0.766778	0.875659
	508.666	1.12377	1.06008
	510.565	1.16682	1.08019
	512.464	1.28568	1.13388
	514.362	0.785565	0.886321
	516.261	0.238706	0.488575
	518.16	-0.196121	0.442855
	520.058	0.0437201	0.209093
	521.957	0.803493	0.896378
	523.855	1.21579	1.10263
	525.754	0.786977	0.887117
	527.653	0.245041	0.495016
	529.551	0.0339354	0.184216
	531.45	-0.26009	0.509991
	533.349	-0.333311	0.577331
	535.247	-0.242466	0.492408
	537.146	-0.265701	0.515462
	539.044	0.247607	0.497601
	540.943	0.347456	0.589454
	542.842	0.525211	0.724714
	544.74	-0.00551086	0.0742351
	546.639	0.178017	0.421921
	548.537	0.411929	0.641817
	550.436	0.535692	0.73191
	552.335	0.761418	0.872593
	554.233	0.675654	0.821981
	556.132	0.697708	0.835289
	558.031	0.738076	0.859114
	559.929	0.580137	0.761667
	561.828	1.00511	1.00255
	563.726	1.47736	1.21547
	565.625	1.54591	1.24335
	567.524	1.63251	1.2777
	569.422	1.48757	1.21966
	571.321	1.95405	1.39787
	573.22	2.14667	1.46515
	575.118	1.93682	1.3917
	577.017	1.60845	1.26825
	578.915	1.43955	1.19981
	580.814	1.58951	1.26076
	582.713	1.08297	1.04066
	584.611	0.848136	0.920943
	586.51	0.68344	0.826705
	588.408	1.08925	1.04367
	590.307	1.17178	1.08249
	592.206	1.69531	1.30204
	594.104	1.69192	1.30074
	596.003	1.67945	1.29594
	597.902	1.06879	1.03382
	599.8	0.53072	0.728505
	601.699	0.0698891	0.264365
	603.597	-0.191342	0.437427
	605.496	-0.618617	0.786522
	607.395	-0.178807	0.422856
	609.293	-0.0767765	0.277086
	611.192	0.365038	0.604184
	613.091	0.11535	0.339633
	614.989	-0.103192	0.321235
	616.888	-0.0276759	0.166361
	618.786	-0.393817	0.627548
	620.685	0.390719	0.625075
	622.584	0.99169	0.995836
	624.482	1.76124	1.32712
	626.381	1.98337	1.40832
	628.279	2.60105	1.61278
	630.178	3.32478	1.8234
	632.077	3.85752	1.96406
	633.975	4.43985	2.10709
	635.874	4.06745	2.01679
	637.773	3.83373	1.95799
	639.671	3.66057	1.91326
	641.57	3.54235	1.88211
	643.468	3.12697	1.76832
	645.367	3.32636	1.82383
	647.266	3.53019	1.87888
	649.164	4.32072	2.07863
	651.063	3.99655	1.99914
	652.962	4.79717	2.19024
	654.86	5.59559	2.3655
	656.759	7.1449	2.67299
	658.657	8.56264	2.9262
	660.556	11.1513	3.33936
	662.455	13.8449	3.72087
	664.353	16.6154	4.0762
	666.252	18.377	4.28684
	668.15	19.5805	4.42499
	670.049	20.0378	4.47636
	671.948	20.7218	4.55212
	673.846	21.4112	4.62723
	675.745	23.0537	4.80143
	677.644	25.6662	5.06618
	679.542	30.4441	5.51761
	681.441	37.2679	6.10475
	683.339	47.2471	6.87365
	685.238	59.8113	7.73378
	687.137	75.4414	8.6857
	689.035	92.2122	9.60272
	690.934	108.154	10.3997
	692.833	120.131	10.9604
	694.731	124.894	11.1756
	696.63	120.714	10.987
	698.528	110.232	10.4991
	700.427	95.1554	9.75476
	702.326	80.9398	8.99665
	704.224	66.5083	8.15526
	706.123	53.0205	7.28152
	708.021	40.305	6.34862
	709.92	30.805	5.55022
	711.819	23.488	4.84644
	713.717	18.372	4.28626
	715.616	14.3631	3.78987
	717.515	11.5708	3.40159
	719.413	9.59229	3.09714
	721.312	8.06843	2.8405
	723.21	6.014	2.45235
	725.109	4.75151	2.1798
	727.008	3.62815	1.90477
	728.906	3.37617	1.83743
	730.805	2.72347	1.65029
	732.704	2.15133	1.46674
	734.602	1.86301	1.36492
	736.501	1.82178	1.34973
	738.399	2.10872	1.45214
	740.298	2.56791	1.60247
	742.197	2.49387	1.5792
	744.095	1.8673	1.36649
	745.994	1.44179	1.20074
	747.892	1.06112	1.03011
	749.791	0.891874	0.944391
	751.69	0.514988	0.717626
	753.588	0.42822	0.654385
	755.487	0.306899	0.553985
	757.386	0.637054	0.798157
	759.284	0.459589	0.67793
	761.183	0.41278	0.64248
	763.081	0.460113	0.678317
	764.98	0.594321	0.770922
	766.879	0.771257	0.878213
	768.777	0.784505	0.885723
	770.676	1.25753	1.1214
	772.575	1.17009	1.08171
	774.473	0.893174	0.945079
	776.372	0.812496	0.901385
	778.27	0.442577	0.665265
	780.169	-0.116556	0.341403
	782.068	-0.43308	0.658088
	783.966	-0.440422	0.663643
	785.865	-0.0839554	0.289751
	787.764	-0.101273	0.318234
	789.662	0.0119537	0.109333
	791.561	0.0152031	0.123301
	793.459	0.00628327	0.0792671
	795.358	-0.137824	0.371247
	797.257	0.0365082	0.191071
	799.155	0.146622	0.382913
	801.054	0.300146	0.547856
	802.952	0.12829	0.358176
	804.851	-0.0331213	0.181992
	806.75	-0.36409	0.603399
	808.648	-0.266406	0.516146
	810.547	-0.000640626	0.0253106
	812.446	0.0690307	0.262737
	814.344	-0.00577827	0.076015
	816.243	-0.458285	0.676968
	818.141	-0.780766	0.883609
	820.04	-1.26909	1.12654
	821.939	-0.804579	0.896983
	823.837	-0.681464	0.825509
	825.736	-0.181939	0.426543
	827.635	-0.348192	0.590078
	829.533	-0.439414	0.662883
	831.432	-0.338213	0.581561
	833.33	-0.33861	0.581902
	835.229	-0.272488	0.522004
	837.128	-0.553692	0.744105
	839.026	-0.359544	0.59962
	840.925	-0.305275	0.552517
	842.823	1.04524	1.02237
	844.722	1.90768	1.38119
	846.621	2.97011	1.7234
	848.519	3.58028	1.89216
	850.418	4.33681	2.0825
	852.317	4.80738	2.19257
	854.215	5.19901	2.28013
	856.114	6.24825	2.49965
	858.012	7.38335	2.71723
	859.911	8.50809	2.91686
	861.81	10.1875	3.19179
	863.708	11.8001	3.43513
	865.607	13.5084	3.67538
	867.506	14.7965	3.84662
	869.404	16.0369	4.00461
	871.303	18.0177	4.24472
	873.201	20.2891	4.50434
	875.1	22.6308	4.75719
	876.999	25.2783	5.02775
	878.897	28.2251	5.31273
	880.796	31.6271	5.62379
	882.694	36.1149	6.00957
	884.593	41.138	6.41389
	886.492	46.8711	6.84625
	888.39	53.8376	7.33741
	890.289	63.1715	7.94805
	892.188	74.1397	8.61044
	894.086	88.7097	9.41859
	895.985	108.034	10.394
	897.883	131.886	11.4842
	899.782	163.575	12.7896
	901.681	204.487	14.2999
	903.579	249.368	15.7914
	905.478	295.46	17.189
	907.377	335.415	18.3143
	909.275	365.699	19.1233
	911.174	380.087	19.4958
	913.072	385.778	19.6412
	914.971	381.31	19.5272
	916.87	373.606	19.3289
	918.768	367.552	19.1717
	920.667	368.086	19.1856
	922.565	381.145	19.5229
	924.464	404.074	20.1016
	926.363	439.779	20.9709
	928.261	485.598	22.0363
	930.16	540.031	23.2386
	932.059	598.507	24.4644
	933.957	657.063	25.6332
	935.856	709.732	26.6408
	937.754	742.482	27.2485
	939.653	753.835	27.4561
	941.552	739.982	27.2026
	943.45	698.249	26.4244
	945.349	644.889	25.3947
	947.248	575.618	23.992
	949.146	507.212	22.5214
	951.045	436.186	20.8851
	952.943	373.51	19.3264
	954.842	316.657	17.7949
	956.741	271.652	16.4819
	958.639	237.016	15.3953
	960.538	209.057	14.4588
	962.436	185.063	13.6038
	964.335	163.905	12.8025
	966.234	143.888	11.9953
	968.132	125.063	11.1832
	970.031	105.965	10.2939
	971.93	90.0235	9.48807
	973.828	73.8813	8.59542
	975.727	60.1436	7.75523
	977.625	47.5004	6.89205
	979.524	36.0952	6.00793
	981.423	27.7929	5.2719
	983.321	20.7966	4.56033
	985.22	15.1874	3.8971
	987.119	10.8457	3.29328
	989.017	7.31573	2.70476
	990.916	5.01541	2.23951
	992.814	3.36909	1.83551
	994.713	2.21774	1.48921
	996.612	2.00481	1.41591
	998.51	1.07533	1.03698
	1000.41	0.421571	0.649285
	1002.31	-0.517829	0.719603
	1004.21	-1.34659	1.16043
	1006.1	-2.0022	1.41499
	1008	-2.15877	1.46928
	1009.9	-1.96657	1.40234
	1011.8	-2.19096	1.48019
	1013.7	-2.697	1.64226
	1015.6	-2.53657	1.59266
	1017.5	-2.82296	1.68017
	1019.4	-2.61237	1.61628
	1021.29	-2.64422	1.6261
	1023.19	-2.43496	1.56044
	1025.09	-1.65566	1.28672
	1026.99	-1.10322	1.05034
	1028.89	-0.407346	0.638237
	1030.79	-0.0398359	0.199589
	1032.69	1.01574	1.00784
	1034.58	2.19612	1.48193
	1036.48	3.39296	1.842
	1038.38	4.90841	2.21549
	1040.28	6.32253	2.51446
	1042.18	7.84693	2.80124
	1044.08	9.53841	3.08843
	1045.98	10.7643	3.2809
	1047.87	11.9532	3.45734
	1049.77	13.356	3.65458
	1051.67	14.7247	3.83728
	1053.57	16.871	4.10744
	1055.47	18.4991	4.30106
	1057.37	20.7447	4.55464
	1059.27	22.4825	4.74157
	1061.16	24.1053	4.90972
	1063.06	25.0612	5.00611
	1064.96	26.4615	5.14408
	1066.86	28.478	5.33647
	1068.76	30.3117	5.50561
	1070.66	32.7832	5.72566
	1072.56	34.8672	5.90484
	1074.46	36.2692	6.02239
	1076.35	37.9662	6.16167
	1078.25	39.0209	6.24667
	1080.15	41.0414	6.40636
	1082.05	41.8469	6.46892
	1083.95	42.6488	6.5306
	1085.85	42.8915	6.54916
	1087.75	43.2774	6.57856
	1089.64	43.4448	6.59127
	1091.54	43.5151	6.5966
	1093.44	43.5282	6.59759
	1095.34	42.4195	6.51303
	1097.24	41.437	6.43716
	1099.14	40.1621	6.33736
	1101.04	38.5216	6.20657
	1102.93	36.7626	6.06322
	1104.83	34.478	5.8718
	1106.73	31.1414	5.58045
	1108.63	26.5759	5.15518
	1110.53	23.5093	4.84864
	1112.43	20.4618	4.52348
	1114.33	17.1799	4.14487
	1116.22	14.1515	3.76184
	1118.12	11.4635	3.38578
	1120.02	9.17142	3.02844
	1121.92	6.6722	2.58306
	1123.82	4.57667	2.13932
	1125.72	3.07161	1.7526
	1127.62	1.4441	1.20171
	1129.51	0.555777	0.745505
	1131.41	-0.0879234	0.296519
	1133.31	-0.446034	0.667858
	1135.21	-0.00455573	0.0674961
	1137.11	0.743505	0.862267
	1139.01	2.26938	1.50644
	1140.91	3.73231	1.93192
	1142.81	5.42854	2.32992
	1144.7	8.1662	2.85766
	1146.6	10.3261	3.21342
	1148.5	13.3213	3.64983
	1150.4	16.1987	4.02476
	1152.3	26.8849	5.18506
	1154.2	40.7177	6.38105
	1156.1	52.4093	7.23943
	1157.99	64.9825	8.06117
	1159.89	77.0636	8.77859
	1161.79	91.7004	9.57603
	1163.69	107.8	10.3827
	1165.59	124.109	11.1404
	1167.49	143.636	11.9848
	1169.39	160.9	12.6846
	1171.28	182.09	13.4941
	1173.18	203.45	14.2636
	1175.08	221.253	14.8746
	1176.98	236.41	15.3756
	1178.88	243.977	15.6198
	1180.78	245.552	15.6701
	1182.68	238.345	15.4384
	1184.57	226.858	15.0618
	1186.47	207.778	14.4145
	1188.37	189.899	13.7804
	1190.27	169.223	13.0086
	1192.17	150.068	12.2502
	1194.07	134.946	11.6166
	1195.97	119.194	10.9176
	1197.87	108.217	10.4028
	1199.76	98.1875	9.90896
	1201.66	89.4978	9.46033
	1203.56	82.1574	9.06407
	1205.46	76.0863	8.72275
	1207.36	70.7544	8.41156
	1209.26	65.1289	8.07024
	1211.16	59.4073	7.70762
	1213.05	53.5787	7.31975
	1214.95	48.3969	6.95679
	1216.85	43.5431	6.59872
	1218.75	39.5257	6.28695
	1220.65	36.132	6.01099
	1222.55	33.4881	5.78689
	1224.45	30.7732	5.54736
	1226.34	28.1345	5.3042
	1228.24	25.6788	5.06742
	1230.14	23.3869	4.836
	1232.04	21.8173	4.6709
	1233.94	20.6831	4.54786
	1235.84	19.8838	4.45912
	1237.74	19.5224	4.41842
	1239.63	18.9183	4.34951
	1241.53	18.6928	4.32352
	1243.43	18.5523	4.30724
	1245.33	18.7835	4.33399
	1247.23	18.4319	4.29324
	1249.13	18.1678	4.26237
	1251.03	18.2675	4.27405
	1252.93	18.9852	4.3572
	1254.82	19.8463	4.45492
	1256.72	20.3807	4.5145
	1258.62	20.2484	4.49982
	1260.52	21.3206	4.61742
	1262.42	21.5795	4.64537
	1264.32	21.5065	4.63751
	1266.22	20.3721	4.51354
	1268.11	20.0619	4.47905
	1270.01	20.4419	4.52127
	1271.91	21.0585	4.58895
	1273.81	21.5496	4.64216
	1275.71	21.4642	4.63295
	1277.61	21.84	4.67333
	1279.51	22.443	4.73741
	1281.4	22.8305	4.77813
	1283.3	23.2782	4.82475
	1285.2	23.6226	4.86031
	1287.1	24.0097	4.89997
	1289	24.1333	4.91257
	1290.9	24.2286	4.92226
	1292.8	24.3271	4.93225
	1294.69	24.1431	4.91356
	1296.59	24.0313	4.90217
	1298.49	23.192	4.8158
	1300.39	22.5382	4.74745
	1302.29	22.1139	4.70254
	1304.19	21.3876	4.62467
	1306.09	20.1723	4.49136
	1307.99	18.909	4.34845
	1309.88	18.094	4.25371
	1311.78	17.0689	4.13145
	1313.68	16.2768	4.03445
	1315.58	14.9095	3.86128
	1317.48	14.087	3.75327
	1319.38	13.2405	3.63874
	1321.28	12.6858	3.56171
	1323.17	11.9739	3.46033
	1325.07	10.7811	3.28345
	1326.97	9.4622	3.07607
	1328.87	8.25911	2.87387
	1330.77	7.26017	2.69447
	1332.67	6.18917	2.4878
	1334.57	5.0524	2.24775
	1336.46	3.87749	1.96914
	1338.36	2.95441	1.71884
	1340.26	1.93253	1.39015
	1342.16	0.862799	0.92887
	1344.06	-0.160025	0.400031
	1345.96	-0.91123	0.954583
	1347.86	-1.27936	1.13109
	1349.75	-1.55779	1.24811
	1351.65	-1.88739	1.37382
	1353.55	-2.11396	1.45395
	1355.45	-1.74991	1.32284
	1357.35	-1.53066	1.2372
	1359.25	-1.30805	1.1437
	1361.15	-1.17592	1.0844
	1363.05	-0.472353	0.68728
	1364.94	0.48537	0.696685
	1366.84	1.68054	1.29636
	1368.74	2.59515	1.61095
	1370.64	3.34082	1.82779
	1372.54	4.15039	2.03725
	1374.44	4.90986	2.21582
	1376.34	6.06403	2.46253
	1378.23	7.0425	2.65377
	1380.13	8.10588	2.84708
	1382.03	9.06214	3.01034
	1383.93	10.0736	3.17389
	1385.83	10.9729	3.31254
	1387.73	11.5357	3.39643
	1389.63	11.8809	3.44687
	1391.52	11.951	3.45702
	1393.42	11.9386	3.45523
	1395.32	11.3036	3.36209
	1397.22	10.1408	3.18446
	1399.12	9.04265	3.0071
	1401.02	8.27629	2.87685
	1402.92	7.66107	2.76786
	1404.81	6.80418	2.60848
	1406.71	5.58514	2.36329
	1408.61	4.90427	2.21456
	1410.51	3.90549	1.97623
	1412.41	3.17186	1.78097
	1414.31	2.53078	1.59084
	1416.21	2.28092	1.51027
	1418.11	1.5664	1.25156
	1420	0.680257	0.824777
	1421.9	0.173173	0.416141
	1423.8	-0.0521746	0.228418
	1425.7	-0.243154	0.493106
	1427.6	-0.629401	0.793348
	1429.5	-0.367895	0.606543
	1431.4	0.0249797	0.15805
	1433.29	0.615139	0.784308
	1435.19	0.620109	0.78747
	1437.09	0.352304	0.593552
	1438.99	0.106452	0.32627
	1440.89	-0.220828	0.469923
	1442.79	-0.14483	0.380565
	1444.69	-0.0838555	0.289578
	1446.58	0.0281198	0.16769
	1448.48	-0.0562557	0.237183
	1450.38	-0.18697	0.4324
	1452.28	-0.158307	0.397878
	1454.18	-0.296066	0.544119
	1456.08	-0.549389	0.741208
	1457.98	-0.424478	0.65152
	1459.87	0.0109522	0.104653
	1461.77	0.489472	0.699623
	1463.67	0.489526	0.699661
	1465.57	0.27857	0.527797
	1467.47	0.350188	0.591767
	1469.37	0.225547	0.474918
	1471.27	0.324108	0.569305
	1473.17	0.203387	0.450985
	1475.06	0.054168	0.23274
	1476.96	0.142346	0.377288
	1478.86	0.255314	0.505286
	1480.76	0.645075	0.803166
	1482.66	0.556502	0.745991
	1484.56	0.0543074	0.23304
	1486.46	-0.179721	0.423935
	1488.35	0.150098	0.387425
	1490.25	0.372997	0.610735
	1492.15	0.178454	0.422438
	1494.05	0.0078551	0.088629
	1495.95	-0.199287	0.446416
	1497.85	-0.134472	0.366704
	1499.75	0.249455	0.499455
	1501.64	0.48157	0.693952
	1503.54	0.127681	0.357325
	1505.44	-0.396161	0.629413
	1507.34	-0.25515	0.505124
	1509.24	0.262142	0.511998
	1511.14	0.813171	0.90176
	1513.04	0.547542	0.739961
	1514.93	0.334093	0.578008
	1516.83	0.318364	0.564238
	1518.73	0.788728	0.888104
	1520.63	1.24985	1.11797
	1522.53	1.35382	1.16354
	1524.43	1.24721	1.11678
	1526.33	0.826857	0.909317
	1528.23	0.899126	0.948223
	1530.12	1.18529	1.08871
	1532.02	1.05057	1.02498
	1533.92	1.14122	1.06828
	1535.82	1.51237	1.22978
	1537.72	1.78284	1.33523
	1539.62	2.39058	1.54615
	1541.52	2.73863	1.65488
	1543.41	3.29671	1.81568
	1545.31	4.34036	2.08335
	1547.21	4.624	2.15035
	1549.11	5.13814	2.26675
	1551.01	5.39587	2.3229
	1552.91	6.09595	2.469
	1554.81	6.85736	2.61866
	1556.7	7.98082	2.82503
	1558.6	9.07326	3.01219
	1560.5	10.3856	3.22267
	1562.4	11.3242	3.36515
	1564.3	12.3336	3.51192
	1566.2	13.306	3.64774
	1568.1	14.8722	3.85644
	1569.99	16.4105	4.05099
	1571.89	17.5643	4.19098
	1573.79	18.6613	4.31987
	1575.69	19.5562	4.42223
	1577.59	20.5289	4.53088
	1579.49	21.363	4.62201
	1581.39	21.9065	4.68044
	1583.29	22.0997	4.70103
	1585.18	22.3553	4.72814
	1587.08	22.6544	4.75966
	1588.98	22.9117	4.78662
	1590.88	23.499	4.84758
	1592.78	24.1256	4.91178
	1594.68	24.8114	4.98111
	1596.58	25.1066	5.01065
	1598.47	25.8997	5.08918
	1600.37	27.0621	5.20212
	1602.27	28.6437	5.35198
	1604.17	31.4127	5.6047
	1606.07	34.7394	5.89402
	1607.97	38.6124	6.21389
	1609.87	43.4725	6.59337
	1611.76	47.8631	6.91832
	1613.66	51.9945	7.21072
	1615.56	55.6345	7.45885
	1617.46	59.1413	7.69034
	1619.36	62.6591	7.91575
	1621.26	65.0387	8.06465
	1623.16	65.8299	8.11356
	1625.05	63.9974	7.99984
	1626.95	60.2773	7.76385
	1628.85	54.7841	7.40163
	1630.75	48.5773	6.96974
	1632.65	42.3639	6.50876
	1634.55	35.4536	5.95429
	1636.45	29.6766	5.44762
	1638.34	23.6868	4.86691
	1640.24	19.2332	4.38557
	1642.14	15.4372	3.92902
	1644.04	12.3481	3.51398
	1645.94	10.207	3.19484
