Generated file C:/Users/didvk/OneDrive - University of Florida/UF_Isaiah_06-16-2020-Tue/Analysis/Re0.1Mo0.9B2/Re0.1Mo0.9B2_HPXRD_run2_300_20220710 - Copy/mask&dat&fxye_4position/3_ReMoB2_10pGPa_260psi_P1_C4_D1w_035.fxye using DIOPTAS
# == pyFAI calibration ==
# Distance Sample to Detector: 0.2103851508954585 m
# PONI: 8.889e-02, 8.665e-02 m
# Rotations: 0.008634 -0.000915 0.000000 rad
# 
# == Fit2d calibration ==
# Distance Sample-beamCenter: 210.393 mm
# Center: x=493.236, y=515.685 pix
# Tilt: 0.497 deg  TiltPlanRot: -173.953 deg
# 
# Detector Detector	 Spline= None	 PixelSize= 1.720e-04, 1.720e-04 m
#    Detector has a mask: False 
#    Detector has a dark current: False 
#    detector has a flat field: False 
# 
# Wavelength: 4.133e-11 m
# Mask applied: None
# Dark current applied: None
# Flat field applied: None
# Polarization factor: None
# Normalization factor: None
BANK	1	1129	1129 CONS	282.731	1.89862 0.4133 0.0 FXYE
	282.731	0.417695	0.646293
	284.629	0.279506	0.528683
	286.528	-0.0358744	0.189405
	288.427	0.396794	0.629916
	290.325	0.423694	0.650918
	292.224	-0.00509925	0.071409
	294.122	-0.00280045	0.0529193
	296.021	-0.143076	0.378254
	297.92	0.877006	0.936486
	299.818	1.46883	1.21195
	301.717	1.95042	1.39657
	303.616	1.90581	1.38051
	305.514	1.26893	1.12647
	307.413	0.836989	0.914871
	309.311	0.720678	0.848928
	311.21	1.68493	1.29805
	313.109	2.00155	1.41476
	315.007	1.20702	1.09864
	316.906	0.600238	0.77475
	318.805	0.422727	0.650175
	320.703	1.24543	1.11599
	322.602	1.43341	1.19725
	324.5	1.88791	1.37401
	326.399	1.93319	1.39039
	328.298	2.28173	1.51054
	330.196	1.98827	1.41006
	332.095	1.81103	1.34575
	333.993	2.83138	1.68267
	335.892	3.79534	1.94816
	337.791	5.30086	2.30236
	339.689	7.13277	2.67073
	341.588	9.53089	3.08721
	343.487	10.2693	3.20457
	345.385	9.48392	3.0796
	347.284	7.09656	2.66394
	349.182	5.82951	2.41444
	351.081	4.35579	2.08705
	352.98	3.07871	1.75462
	354.878	2.217	1.48896
	356.777	1.58671	1.25965
	358.676	1.30362	1.14176
	360.574	1.21805	1.10365
	362.473	1.06644	1.03269
	364.371	1.29069	1.13608
	366.27	0.89644	0.946805
	368.169	0.730906	0.85493
	370.067	0.888637	0.942675
	371.966	1.27944	1.13112
	373.864	1.66985	1.29223
	375.763	1.41392	1.18908
	377.662	1.31419	1.14638
	379.56	0.956983	0.978255
	381.459	1.11932	1.05798
	383.358	1.01703	1.00848
	385.256	1.20442	1.09746
	387.155	1.38091	1.17512
	389.053	1.39244	1.18002
	390.952	1.12457	1.06046
	392.851	1.39866	1.18265
	394.749	1.59079	1.26126
	396.648	1.73793	1.31831
	398.547	1.62343	1.27414
	400.445	1.67162	1.29291
	402.344	1.25812	1.12166
	404.242	0.144146	0.379665
	406.141	-0.0707359	0.265962
	408.04	-0.0778237	0.278969
	409.938	0.724633	0.851254
	411.837	0.705808	0.840124
	413.735	1.33211	1.15417
	415.634	1.44658	1.20274
	417.533	1.31964	1.14876
	419.431	0.995541	0.997768
	421.33	0.732595	0.855918
	423.229	0.921433	0.959913
	425.127	1.03877	1.0192
	427.026	1.12673	1.06147
	428.924	1.37661	1.17329
	430.823	1.62235	1.27372
	432.722	1.47578	1.21482
	434.62	0.867817	0.931567
	436.519	0.654033	0.808723
	438.418	0.485403	0.696709
	440.316	0.683956	0.827016
	442.215	0.803668	0.896475
	444.113	0.64902	0.805618
	446.012	0.830009	0.911048
	447.911	0.157805	0.397247
	449.809	0.0644499	0.25387
	451.708	0.0804248	0.283593
	453.606	0.577846	0.760162
	455.505	0.64136	0.80085
	457.404	0.659728	0.812237
	459.302	0.290089	0.538599
	461.201	0.451517	0.67195
	463.1	0.321075	0.566635
	464.998	0.197714	0.444651
	466.897	-0.188977	0.434714
	468.795	0.393171	0.627034
	470.694	0.946683	0.972976
	472.593	1.4238	1.19323
	474.491	1.44504	1.2021
	476.39	1.41729	1.1905
	478.289	1.08306	1.0407
	480.187	0.995819	0.997907
	482.086	0.473429	0.688062
	483.984	0.458299	0.676978
	485.883	0.0303117	0.174103
	487.782	0.0900187	0.300031
	489.68	0.555558	0.745358
	491.579	0.843047	0.918176
	493.478	0.609209	0.780519
	495.376	0.491812	0.701293
	497.275	0.0523219	0.22874
	499.173	0.344738	0.587144
	501.072	0.566823	0.752877
	502.971	0.436495	0.660678
	504.869	0.231346	0.480985
	506.768	0.417353	0.646029
	508.666	0.575499	0.758617
	510.565	0.868633	0.932005
	512.464	0.647413	0.80462
	514.362	0.214482	0.463122
	516.261	-0.0199035	0.14108
	518.16	-0.185718	0.43095
	520.058	-0.11152	0.333946
	521.957	-0.0492118	0.221837
	523.855	0.499208	0.706547
	525.754	0.91597	0.957063
	527.653	1.78612	1.33646
	529.551	1.74898	1.32249
	531.45	1.81277	1.34639
	533.349	1.95989	1.39996
	535.247	2.29118	1.51366
	537.146	2.41368	1.5536
	539.044	1.91268	1.383
	540.943	1.63269	1.27777
	542.842	1.30609	1.14284
	544.74	0.554643	0.744744
	546.639	0.293333	0.541603
	548.537	0.18749	0.433001
	550.436	0.228543	0.478062
	552.335	-0.0874347	0.295694
	554.233	0.188559	0.434234
	556.132	1.05521	1.02723
	558.031	1.37298	1.17174
	559.929	1.05219	1.02576
	561.828	1.16689	1.08023
	563.726	1.50459	1.22662
	565.625	1.89086	1.37509
	567.524	1.55145	1.24557
	569.422	1.27799	1.13048
	571.321	1.47786	1.21567
	573.22	1.80971	1.34526
	575.118	1.64978	1.28444
	577.017	0.769699	0.877325
	578.915	0.0509724	0.225771
	580.814	0.215799	0.464542
	582.713	0.593991	0.770708
	584.611	1.13397	1.06488
	586.51	1.13004	1.06303
	588.408	0.772172	0.878733
	590.307	0.550109	0.741694
	592.206	0.526962	0.725922
	594.104	1.08352	1.04092
	596.003	0.645714	0.803563
	597.902	0.606013	0.778468
	599.8	0.397974	0.630852
	601.699	0.522731	0.723002
	603.597	0.248828	0.498826
	605.496	0.289185	0.537759
	607.395	0.718724	0.847776
	609.293	0.873275	0.934492
	611.192	0.682237	0.825977
	613.091	0.944735	0.971975
	614.989	0.85229	0.923195
	616.888	0.670954	0.819118
	618.786	0.00836807	0.0914771
	620.685	-0.128008	0.357782
	622.584	0.437247	0.661247
	624.482	0.675126	0.82166
	626.381	0.843465	0.918404
	628.279	0.746698	0.864117
	630.178	0.820063	0.905573
	632.077	0.982347	0.991134
	633.975	1.00245	1.00122
	635.874	0.822024	0.906655
	637.773	0.716587	0.846515
	639.671	0.384762	0.620292
	641.57	0.54	0.734847
	643.468	0.754269	0.868486
	645.367	2.11219	1.45334
	647.266	3.98626	1.99656
	649.164	5.75469	2.39889
	651.063	6.08241	2.46625
	652.962	5.08054	2.254
	654.86	3.44551	1.85621
	656.759	2.94405	1.71582
	658.657	2.29316	1.51432
	660.556	2.30248	1.51739
	662.455	2.08422	1.44368
	664.353	1.99691	1.41312
	666.252	2.1061	1.45124
	668.15	2.30905	1.51956
	670.049	2.94326	1.71559
	671.948	4.6136	2.14793
	673.846	6.71434	2.5912
	675.745	9.54869	3.0901
	677.644	13.866	3.7237
	679.542	18.1519	4.2605
	681.441	24.5914	4.95897
	683.339	28.5328	5.34161
	685.238	32.6836	5.71696
	687.137	34.0289	5.83343
	689.035	33.0972	5.75302
	690.934	30.2606	5.50097
	692.833	28.0896	5.29996
	694.731	24.0308	4.90212
	696.63	19.4253	4.40741
	698.528	15.7028	3.96268
	700.427	11.5428	3.39748
	702.326	9.25585	3.04234
	704.224	6.36812	2.52351
	706.123	4.48327	2.11737
	708.021	2.87752	1.69632
	709.92	2.1918	1.48047
	711.819	2.0832	1.44333
	713.717	2.24072	1.4969
	715.616	1.75103	1.32327
	717.515	1.10052	1.04906
	719.413	0.732401	0.855804
	721.312	0.669612	0.818298
	723.21	0.612683	0.78274
	725.109	0.0331914	0.182185
	727.008	0.0955665	0.309138
	728.906	-0.0277305	0.166525
	730.805	-0.0521074	0.228271
	732.704	0.181854	0.426444
	734.602	0.62678	0.791695
	736.501	1.0248	1.01232
	738.399	0.705352	0.839853
	740.298	0.536204	0.732259
	742.197	0.197177	0.444047
	744.095	0.345574	0.587855
	745.994	0.510544	0.714524
	747.892	0.84236	0.917802
	749.791	0.864089	0.929564
	751.69	1.06075	1.02993
	753.588	0.782422	0.884546
	755.487	0.363024	0.602515
	757.386	0.516059	0.718373
	759.284	0.294787	0.542943
	761.183	0.346953	0.589027
	763.081	0.101023	0.317842
	764.98	0.495339	0.703803
	766.879	0.640788	0.800492
	768.777	0.608634	0.78015
	770.676	0.261154	0.511032
	772.575	0.31925	0.565022
	774.473	0.716239	0.846309
	776.372	1.08149	1.03995
	778.27	0.742682	0.86179
	780.169	0.210347	0.458636
	782.068	-0.113259	0.336539
	783.966	-0.0532737	0.230811
	785.865	0.319882	0.565581
	787.764	0.154237	0.39273
	789.662	0.375032	0.612399
	791.561	0.353097	0.59422
	793.459	0.426823	0.653317
	795.358	0.425389	0.652218
	797.257	0.752452	0.86744
	799.155	0.551264	0.742472
	801.054	0.4589	0.677422
	802.952	0.0306942	0.175198
	804.851	0.198798	0.445868
	806.75	0.357066	0.59755
	808.648	0.614991	0.784214
	810.547	0.813302	0.901833
	812.446	0.500524	0.707477
	814.344	0.126754	0.356025
	816.243	-0.0675326	0.25987
	818.141	0.171772	0.414454
	820.04	0.41899	0.647295
	821.939	0.3769	0.613922
	823.837	0.876249	0.936082
	825.736	0.918757	0.958518
	827.635	0.962272	0.980954
	829.533	0.903008	0.950267
	831.432	0.783543	0.88518
	833.33	0.584598	0.76459
	835.229	0.337602	0.581035
	837.128	0.287823	0.536491
	839.026	0.467525	0.683758
	840.925	0.0467953	0.216322
	842.823	0.341131	0.584064
	844.722	0.358193	0.598492
	846.621	0.614001	0.783582
	848.519	0.70645	0.840506
	850.418	0.878208	0.937127
	852.317	0.877391	0.936692
	854.215	0.740582	0.860571
	856.114	0.598162	0.773409
	858.012	0.421881	0.649524
	859.911	0.0249699	0.158019
	861.81	-0.122921	0.350601
	863.708	-0.174559	0.417803
	865.607	0.00118101	0.0343658
	867.506	0.176633	0.420277
	869.404	0.294207	0.542408
	871.303	0.139396	0.373358
	873.201	-0.00563054	0.0750369
	875.1	-0.148544	0.385414
	876.999	-0.156875	0.396075
	878.897	-0.351679	0.593025
	880.796	-0.139273	0.373193
	882.694	-0.12619	0.355232
	884.593	-0.00639593	0.0799745
	886.492	-0.0481102	0.21934
	888.39	-0.0857495	0.29283
	890.289	-0.045732	0.213851
	892.188	0.205499	0.45332
	894.086	0.729683	0.854215
	895.985	1.515	1.23085
	897.883	2.16872	1.47266
	899.782	3.30929	1.81915
	901.681	5.68755	2.38486
	903.579	9.72564	3.1186
	905.478	17.0539	4.12964
	907.377	31.6672	5.62736
	909.275	52.5326	7.24794
	911.174	84.7795	9.20758
	913.072	129.091	11.3618
	914.971	195.558	13.9842
	916.87	290.245	17.0366
	918.768	414.008	20.3472
	920.667	552.966	23.5152
	922.565	700.09	26.4592
	924.464	846.107	29.0879
	926.363	985.115	31.3865
	928.261	1123.92	33.5249
	930.16	1245.42	35.2906
	932.059	1332.92	36.5092
	933.957	1376.57	37.1022
	935.856	1397.09	37.3776
	937.754	1334.84	36.5354
	939.653	1180.1	34.3526
	941.552	938.315	30.6319
	943.45	716.131	26.7606
	945.349	528.532	22.9898
	947.248	406.807	20.1695
	949.146	322.95	17.9708
	951.045	264.569	16.2656
	952.943	223.965	14.9655
	954.842	195.287	13.9745
	956.741	173.737	13.1809
	958.639	151.333	12.3018
	960.538	124.537	11.1596
	962.436	94.9102	9.74219
	964.335	67.4559	8.21315
	966.234	46.0576	6.78657
	968.132	32.2841	5.68191
	970.031	22.8201	4.77704
	971.93	16.414	4.05142
	973.828	11.4575	3.3849
	975.727	7.63111	2.76245
	977.625	4.66655	2.16022
	979.524	2.5066	1.58322
	981.423	0.934522	0.966707
	983.321	0.306086	0.553251
	985.22	-0.387177	0.622236
	987.119	-0.24421	0.494177
	989.017	0.140944	0.375425
	990.916	0.738148	0.859155
	992.814	2.17158	1.47363
	994.713	3.38655	1.84026
	996.612	5.9616	2.44164
	998.51	7.98709	2.82614
	1000.41	9.28662	3.0474
	1002.31	11.4964	3.39063
	1004.21	11.8064	3.43605
	1006.1	15.1599	3.89357
	1008	17.0794	4.13272
	1009.9	22.0356	4.69421
	1011.8	28.5352	5.34183
	1013.7	32.2623	5.67999
	1015.6	28.7283	5.35988
	1017.5	31.1907	5.58486
	1019.4	33.8136	5.81495
	1021.29	43.6538	6.60711
	1023.19	53.1622	7.29124
	1025.09	71.0278	8.4278
	1026.99	83.4184	9.13337
	1028.89	87.8009	9.37021
	1030.79	75.7478	8.70332
	1032.69	71.3196	8.44509
	1034.58	70.3244	8.38597
	1036.48	65.1079	8.06894
	1038.38	64.3707	8.02313
	1040.28	69.0792	8.31139
	1042.18	64.6139	8.03828
	1044.08	55.8208	7.47133
	1045.98	53.2276	7.29573
	1047.87	48.2706	6.94771
	1049.77	37.3401	6.11065
	1051.67	33.0138	5.74577
	1053.57	31.1887	5.58468
	1055.47	27.765	5.26925
	1057.37	24.6215	4.96201
	1059.27	22.7242	4.76699
	1061.16	21.2807	4.6131
	1063.06	20.4532	4.52252
	1064.96	20.217	4.49633
	1066.86	20.6466	4.54385
	1068.76	21.9679	4.68699
	1070.66	24.4963	4.94937
	1072.56	27.6781	5.261
	1074.46	31.7157	5.63167
	1076.35	36.8776	6.07269
	1078.25	41.6871	6.45655
	1080.15	49.8085	7.05751
	1082.05	56.4861	7.51572
	1083.95	65.4019	8.08714
	1085.85	70.8456	8.41698
	1087.75	75.0903	8.66547
	1089.64	73.2296	8.55743
	1091.54	66.3779	8.14726
	1093.44	54.2867	7.36795
	1095.34	43.7183	6.61198
	1097.24	33.6851	5.80388
	1099.14	24.1155	4.91075
	1101.04	18.5243	4.30399
	1102.93	13.3299	3.65101
	1104.83	10.0449	3.16937
	1106.73	7.25999	2.69444
	1108.63	5.07554	2.2529
	1110.53	3.52884	1.87852
	1112.43	2.75506	1.65984
	1114.33	2.20444	1.48474
	1116.22	2.1165	1.45482
	1118.12	1.82328	1.35029
	1120.02	1.54843	1.24436
	1121.92	1.30043	1.14036
	1123.82	1.15529	1.07485
	1125.72	1.14525	1.07016
	1127.62	1.95947	1.39981
	1129.51	2.98836	1.72869
	1131.41	4.12964	2.03215
	1133.31	4.8958	2.21264
	1135.21	5.37256	2.31788
	1137.11	6.04631	2.45892
	1139.01	6.18801	2.48757
	1140.91	5.58551	2.36337
	1142.81	4.1508	2.03735
	1144.7	2.96018	1.72052
	1146.6	1.63685	1.27939
	1148.5	0.807503	0.898612
	1150.4	0.0466527	0.215992
	1152.3	-0.523509	0.723539
	1154.2	-0.511805	0.715405
	1156.1	-0.316117	0.562243
	1157.99	0.155064	0.393782
	1159.89	0.185254	0.430412
	1161.79	-0.450866	0.671466
	1163.69	-0.460915	0.678908
	1165.59	-0.514882	0.717553
	1167.49	-0.506464	0.711663
	1169.39	-0.453108	0.673133
	1171.28	-0.0857318	0.2928
	1173.18	0.190201	0.43612
	1175.08	0.447433	0.668904
	1176.98	0.64057	0.800356
	1178.88	0.581027	0.762251
	1180.78	0.438135	0.661917
	1182.68	0.607857	0.779652
	1184.57	0.579427	0.761201
	1186.47	0.746728	0.864134
	1188.37	1.03792	1.01878
	1190.27	1.8354	1.35477
	1192.17	2.86267	1.69194
	1194.07	3.6195	1.9025
	1195.97	4.28098	2.06905
	1197.87	5.20365	2.28115
	1199.76	6.22776	2.49555
	1201.66	7.49739	2.73814
	1203.56	9.77705	3.12683
	1205.46	13.5959	3.68727
	1207.36	18.7545	4.33064
	1209.26	25.3094	5.03085
	1211.16	32.6323	5.71247
	1213.05	41.4066	6.4348
	1214.95	50.3176	7.09349
	1216.85	57.294	7.56928
	1218.75	60.7333	7.79316
	1220.65	60.4848	7.77719
	1222.55	56.4751	7.51499
	1224.45	51.3898	7.16867
	1226.34	45.0686	6.71332
	1228.24	39.9649	6.32178
	1230.14	34.9831	5.91465
	1232.04	30.1768	5.49334
	1233.94	26.7264	5.16976
	1235.84	23.9985	4.89882
	1237.74	21.6533	4.65331
	1239.63	19.6557	4.43347
	1241.53	18.0794	4.25199
	1243.43	16.4816	4.05975
	1245.33	15.0798	3.88328
	1247.23	14.1838	3.76614
	1249.13	13.7872	3.71311
	1251.03	13.9811	3.73913
	1252.93	14.5512	3.8146
	1254.82	14.7434	3.83971
	1256.72	15.156	3.89307
	1258.62	15.083	3.88369
	1260.52	14.6709	3.83026
	1262.42	14.9382	3.86499
	1264.32	14.2906	3.78029
	1266.22	12.8586	3.58589
	1268.11	11.2528	3.35452
	1270.01	10.9866	3.31461
	1271.91	10.5119	3.24221
	1273.81	10.6803	3.26808
	1275.71	11.6008	3.40599
	1277.61	13.208	3.63429
	1279.51	15.0003	3.87302
	1281.4	16.8493	4.10479
	1283.3	19.4684	4.4123
	1285.2	22.4912	4.74249
	1287.1	25.7205	5.07154
	1289	29.1067	5.39507
	1290.9	31.7739	5.63683
	1292.8	34.318	5.85815
	1294.69	34.5467	5.87765
	1296.59	33.5584	5.79296
	1298.49	30.178	5.49345
	1300.39	26.1415	5.11288
	1302.29	22.2673	4.71882
	1304.19	19.7199	4.44071
	1306.09	16.8936	4.11018
	1307.99	14.1028	3.75536
	1309.88	11.7577	3.42895
	1311.78	9.86899	3.1415
	1313.68	8.45532	2.9078
	1315.58	7.03748	2.65282
	1317.48	6.16595	2.48313
	1319.38	5.24711	2.29066
	1321.28	4.48001	2.1166
	1323.17	4.12906	2.03201
	1325.07	3.23064	1.7974
	1326.97	2.68474	1.63852
	1328.87	1.87482	1.36924
	1330.77	1.75627	1.32524
	1332.67	1.59764	1.26398
	1334.57	1.1936	1.09252
	1336.46	0.92484	0.961686
	1338.36	0.84791	0.92082
	1340.26	0.47894	0.692055
	1342.16	0.0802495	0.283283
	1344.06	-0.325062	0.570142
	1345.96	-0.322434	0.567833
	1347.86	-0.0552485	0.23505
	1349.75	0.318201	0.564093
	1351.65	0.544824	0.738122
	1353.55	0.77834	0.882236
	1355.45	0.595007	0.771367
	1357.35	0.729183	0.853922
	1359.25	1.20564	1.09802
	1361.15	1.95778	1.39921
	1363.05	2.11701	1.45499
	1364.94	2.19555	1.48174
	1366.84	2.68805	1.63953
	1368.74	3.3316	1.82527
	1370.64	3.72482	1.92998
	1372.54	3.7804	1.94432
	1374.44	4.10004	2.02486
	1376.34	4.05685	2.01416
	1378.23	3.93056	1.98257
	1380.13	3.85763	1.96408
	1382.03	3.67967	1.91825
	1383.93	3.65852	1.91272
	1385.83	3.5771	1.89132
	1387.73	3.72294	1.92949
	1389.63	2.90784	1.70524
	1391.52	2.40455	1.55066
	1393.42	1.99335	1.41186
	1395.32	1.8609	1.36415
	1397.22	1.34414	1.15937
	1399.12	0.754108	0.868394
	1401.02	0.551493	0.742626
	1402.92	0.57015	0.755083
	1404.81	0.542598	0.736612
	1406.71	0.502872	0.709135
	1408.61	0.39642	0.629619
	1410.51	0.351174	0.5926
	1412.41	0.20311	0.450677
	1414.31	0.112959	0.336094
	1416.21	-0.0383693	0.195881
	1418.11	-0.148284	0.385076
	1420	-0.124333	0.352609
	1421.9	0.162684	0.40334
	1423.8	0.562143	0.749762
	1425.7	0.491407	0.701005
	1427.6	-0.025662	0.160194
	1429.5	-0.0246439	0.156984
	1431.4	0.342606	0.585325
	1433.29	0.377152	0.614127
	1435.19	0.611792	0.782171
	1437.09	0.70125	0.837407
	1438.99	0.566502	0.752663
	1440.89	0.501855	0.708417
	1442.79	0.55917	0.747777
	1444.69	0.85603	0.925219
	1446.58	0.814305	0.902389
	1448.48	0.50344	0.709535
	1450.38	0.138373	0.371985
	1452.28	0.363869	0.603216
	1454.18	0.667231	0.816842
	1456.08	0.463973	0.681156
	1457.98	0.460617	0.678688
	1459.87	0.455109	0.674617
	1461.77	0.752832	0.867659
	1463.67	0.713718	0.844818
	1465.57	0.845853	0.919703
	1467.47	0.742175	0.861496
	1469.37	0.460754	0.678789
	1471.27	0.588479	0.767124
	1473.17	0.373952	0.611516
	1475.06	0.427741	0.654019
	1476.96	0.0868424	0.29469
	1478.86	0.014757	0.121478
	1480.76	0.423282	0.650601
	1482.66	0.701661	0.837652
	1484.56	0.970828	0.985306
	1486.46	0.697803	0.835346
	1488.35	-0.0456379	0.21363
	1490.25	-0.98586	0.992905
	1492.15	-0.928724	0.963703
	1494.05	-0.388093	0.622971
	1495.95	0.216804	0.465622
	1497.85	-0.192772	0.439058
	1499.75	0.129727	0.360177
	1501.64	0.312202	0.558751
	1503.54	0.68728	0.829024
	1505.44	0.719809	0.848415
	1507.34	0.620821	0.787922
	1509.24	0.824908	0.908245
	1511.14	1.0267	1.01326
	1513.04	1.28451	1.13336
	1514.93	1.44138	1.20057
	1516.83	2.00958	1.4176
	1518.73	2.59906	1.61216
	1520.63	3.11244	1.76421
	1522.53	3.83685	1.95879
	1524.43	4.40009	2.09764
	1526.33	5.39504	2.32272
	1528.23	5.64166	2.37522
	1530.12	7.2787	2.69791
	1532.02	8.31226	2.8831
	1533.92	9.30241	3.04999
	1535.82	9.64882	3.10626
	1537.72	10.0867	3.17595
	1539.62	11.1396	3.33761
	1541.52	12.305	3.50785
	1543.41	13.135	3.62422
	1545.31	14.9149	3.86198
	1547.21	17.2299	4.15089
	1549.11	19.8144	4.45134
	1551.01	23.6983	4.86809
	1552.91	29.094	5.39388
	1554.81	36.8093	6.06707
	1556.7	46.8767	6.84666
	1558.6	61.0462	7.81321
	1560.5	79.257	8.90264
	1562.4	99.86	9.993
	1564.3	118.488	10.8852
	1566.2	129.471	11.3785
	1568.1	123.325	11.1052
	1569.99	105.075	10.2506
	1571.89	84.0422	9.16745
	1573.79	67.2249	8.19908
	1575.69	54.5315	7.38454
	1577.59	46.4871	6.81815
	1579.49	41.0337	6.40576
	1581.39	37.2665	6.10463
	1583.29	36.4798	6.03985
	1585.18	39.4363	6.27983
	1587.08	43.7475	6.61419
	1588.98	48.5912	6.97074
	1590.88	48.3653	6.95452
	1592.78	46.2681	6.80206
	1594.68	38.403	6.19702
	1596.58	32.7628	5.72388
	1598.47	24.9615	4.99615
	1600.37	21.5197	4.63893
	1602.27	19.4167	4.40644
	1604.17	17.9401	4.23558
	1606.07	16.6395	4.07915
	1607.97	14.9786	3.87022
	1609.87	13.3196	3.6496
	1611.76	11.9831	3.46166
	1613.66	10.9129	3.30347
	1615.56	10.1525	3.1863
	1617.46	9.70678	3.11557
	1619.36	9.04699	3.00782
	1621.26	9.00245	3.00041
	1623.16	9.01418	3.00236
	1625.05	8.47963	2.91198
	1626.95	7.63627	2.76338
	1628.85	7.05311	2.65577
	1630.75	6.2461	2.49922
	1632.65	5.55159	2.35618
	1634.55	4.99471	2.23488
	1636.45	4.31355	2.07691
