Generated file C:/Users/didvk/OneDrive - University of Florida/UF_Isaiah_06-16-2020-Tue/Analysis/Re0.1Mo0.9B2/Re0.1Mo0.9B2_HPXRD_run2_300_20220710 - Copy/mask&dat&fxye_4position/5_ReMoB2_20pGPa_325psi_P1_C4_D1w_047.fxye using DIOPTAS
# == pyFAI calibration ==
# Distance Sample to Detector: 0.2103851508954585 m
# PONI: 8.889e-02, 8.665e-02 m
# Rotations: 0.008634 -0.000915 0.000000 rad
# 
# == Fit2d calibration ==
# Distance Sample-beamCenter: 210.393 mm
# Center: x=493.236, y=515.685 pix
# Tilt: 0.497 deg  TiltPlanRot: -173.953 deg
# 
# Detector Detector	 Spline= None	 PixelSize= 1.720e-04, 1.720e-04 m
#    Detector has a mask: False 
#    Detector has a dark current: False 
#    detector has a flat field: False 
# 
# Wavelength: 4.133e-11 m
# Mask applied: None
# Dark current applied: None
# Flat field applied: None
# Polarization factor: None
# Normalization factor: None
BANK	1	1129	1129 CONS	282.731	1.89862 0.4133 0.0 FXYE
	282.731	0.408169	0.638881
	284.629	0.543929	0.737515
	286.528	0.686456	0.828527
	288.427	0.688266	0.829618
	290.325	0.742615	0.861751
	292.224	0.801374	0.895195
	294.122	0.943584	0.971382
	296.021	1.012	1.00598
	297.92	1.05649	1.02785
	299.818	0.69978	0.836528
	301.717	-0.140135	0.374346
	303.616	0.0761672	0.275984
	305.514	0.174796	0.418086
	307.413	0.734084	0.856787
	309.311	1.03297	1.01635
	311.21	1.14518	1.07013
	313.109	1.14675	1.07087
	315.007	0.911433	0.95469
	316.906	1.25351	1.1196
	318.805	1.11954	1.05808
	320.703	2.01408	1.41918
	322.602	2.20296	1.48424
	324.5	2.34081	1.52997
	326.399	2.4483	1.56471
	328.298	2.58706	1.60843
	330.196	2.80114	1.67366
	332.095	3.5764	1.89114
	333.993	4.05695	2.01419
	335.892	4.9443	2.22358
	337.791	6.70442	2.58929
	339.689	10.7386	3.27697
	341.588	16.9348	4.11519
	343.487	22.0342	4.69406
	345.385	23.2663	4.82351
	347.284	20.4864	4.52619
	349.182	15.7941	3.97417
	351.081	10.629	3.26022
	352.98	6.66581	2.58182
	354.878	3.83081	1.95724
	356.777	2.31833	1.52261
	358.676	2.03514	1.42658
	360.574	2.22763	1.49253
	362.473	2.77885	1.66699
	364.371	2.51811	1.58685
	366.27	2.29197	1.51393
	368.169	1.63008	1.27675
	370.067	1.09285	1.0454
	371.966	0.656222	0.810075
	373.864	0.010521	0.102572
	375.763	0.0533149	0.2309
	377.662	-0.0749024	0.273683
	379.56	0.642043	0.801276
	381.459	0.758924	0.871162
	383.358	1.26384	1.1242
	385.256	1.33146	1.15389
	387.155	1.34943	1.16165
	389.053	1.0859	1.04206
	390.952	1.07143	1.0351
	392.851	1.31534	1.14688
	394.749	1.99896	1.41385
	396.648	1.68543	1.29824
	398.547	1.1915	1.09156
	400.445	0.599724	0.774418
	402.344	0.807335	0.898518
	404.242	0.615691	0.78466
	406.141	0.786745	0.886987
	408.04	0.58529	0.765043
	409.938	1.15831	1.07625
	411.837	0.81151	0.900839
	413.735	0.693074	0.832511
	415.634	0.378834	0.615495
	417.533	0.59692	0.772606
	419.431	0.634653	0.796651
	421.33	0.853742	0.923982
	423.229	1.04204	1.0208
	425.127	0.981274	0.990593
	427.026	0.728075	0.853273
	428.924	0.60908	0.780436
	430.823	0.178719	0.422752
	432.722	0.0162259	0.127381
	434.62	-0.0873238	0.295506
	436.519	0.302203	0.54973
	438.418	0.4451	0.667158
	440.316	0.299829	0.547567
	442.215	-0.0160275	0.1266
	444.113	0.595781	0.771869
	446.012	0.955097	0.977291
	447.911	0.887654	0.942154
	449.809	0.311624	0.558233
	451.708	0.509169	0.713561
	453.606	0.555207	0.745122
	455.505	0.516729	0.718839
	457.404	-0.00624682	0.0790368
	459.302	-0.182313	0.426981
	461.201	-0.00948926	0.0974128
	463.1	0.0754175	0.274622
	464.998	0.414815	0.644062
	466.897	0.475269	0.689398
	468.795	0.437297	0.661285
	470.694	0.580552	0.76194
	472.593	0.773166	0.879298
	474.491	0.51089	0.714766
	476.39	0.684415	0.827294
	478.289	0.849964	0.921935
	480.187	1.06295	1.03099
	482.086	1.16615	1.07989
	483.984	1.46142	1.20889
	485.883	0.891569	0.944229
	487.782	0.658599	0.811541
	489.68	0.510598	0.714562
	491.579	0.475352	0.689457
	493.478	0.441248	0.664265
	495.376	0.0443907	0.210691
	497.275	0.268178	0.517859
	499.173	0.78085	0.883657
	501.072	1.5615	1.2496
	502.971	1.535	1.23895
	504.869	0.92129	0.959839
	506.768	0.558402	0.747263
	508.666	0.878874	0.937483
	510.565	1.21872	1.10396
	512.464	1.64923	1.28422
	514.362	1.26648	1.12538
	516.261	1.21276	1.10125
	518.16	1.04608	1.02278
	520.058	0.977885	0.988881
	521.957	0.972335	0.986071
	523.855	0.904959	0.951293
	525.754	0.798216	0.89343
	527.653	0.848021	0.920881
	529.551	1.11384	1.05538
	531.45	0.591247	0.768926
	533.349	0.584858	0.76476
	535.247	0.480607	0.693258
	537.146	0.696355	0.834479
	539.044	1.19643	1.09382
	540.943	1.54307	1.2422
	542.842	1.22707	1.10773
	544.74	0.603701	0.776982
	546.639	-0.18776	0.433313
	548.537	-0.168982	0.411075
	550.436	-0.179925	0.424176
	552.335	0.372243	0.610117
	554.233	0.795616	0.891973
	556.132	1.40015	1.18328
	558.031	1.99218	1.41145
	559.929	1.63708	1.27949
	561.828	1.77904	1.33381
	563.726	1.2122	1.101
	565.625	1.42327	1.19301
	567.524	1.21296	1.10135
	569.422	1.55737	1.24795
	571.321	1.25862	1.12188
	573.22	1.30806	1.1437
	575.118	1.23275	1.11029
	577.017	1.18885	1.09034
	578.915	1.00847	1.00423
	580.814	1.4661	1.21083
	582.713	1.71188	1.30839
	584.611	1.73576	1.31748
	586.51	1.23323	1.11051
	588.408	1.36742	1.16937
	590.307	1.11603	1.05642
	592.206	0.902053	0.949765
	594.104	0.750084	0.866074
	596.003	0.306965	0.554044
	597.902	0.627578	0.792198
	599.8	0.296094	0.544145
	601.699	0.373748	0.611349
	603.597	0.17582	0.419309
	605.496	0.0915046	0.302497
	607.395	0.0640883	0.253157
	609.293	-0.16784	0.409682
	611.192	-0.11099	0.333152
	613.091	0.238592	0.488459
	614.989	0.378545	0.61526
	616.888	0.521657	0.722258
	618.786	0.29762	0.545545
	620.685	0.796974	0.892734
	622.584	0.850056	0.921985
	624.482	0.862664	0.928797
	626.381	0.463227	0.680608
	628.279	0.629977	0.793711
	630.178	0.80307	0.896141
	632.077	0.73337	0.85637
	633.975	0.297964	0.545861
	635.874	0.136601	0.369595
	637.773	0.2891	0.53768
	639.671	0.73538	0.857543
	641.57	1.19863	1.09482
	643.468	1.11683	1.0568
	645.367	1.58869	1.26043
	647.266	2.41236	1.55318
	649.164	4.65392	2.15729
	651.063	8.32885	2.88598
	652.962	13.5805	3.68517
	654.86	17.8789	4.22834
	656.759	19.8258	4.45261
	658.657	18.3233	4.28058
	660.556	14.2642	3.77679
	662.455	10.0069	3.16337
	664.353	6.88145	2.62325
	666.252	5.06619	2.25082
	668.15	4.71278	2.17089
	670.049	4.9331	2.22106
	671.948	5.55572	2.35706
	673.846	6.70053	2.58854
	675.745	8.87135	2.97848
	677.644	13.7366	3.70629
	679.542	22.3096	4.72331
	681.441	36.736	6.06102
	683.339	56.9356	7.54556
	685.238	80.954	8.99745
	687.137	105.929	10.2922
	689.035	122.028	11.0466
	690.934	124.365	11.1519
	692.833	113.572	10.657
	694.731	94.4986	9.72104
	696.63	73.3499	8.56446
	698.528	54.0905	7.35463
	700.427	37.6534	6.13623
	702.326	26.8786	5.18446
	704.224	18.6134	4.31433
	706.123	13.0726	3.6156
	708.021	9.17249	3.02861
	709.92	7.01186	2.64799
	711.819	5.36919	2.31715
	713.717	4.13061	2.03239
	715.616	2.6239	1.61984
	717.515	2.05603	1.43389
	719.413	1.54296	1.24216
	721.312	1.24249	1.11467
	723.21	0.715083	0.845626
	725.109	0.320518	0.566143
	727.008	0.118758	0.344612
	728.906	0.63117	0.794462
	730.805	0.724166	0.850979
	732.704	0.999446	0.999723
	734.602	0.937462	0.968226
	736.501	0.97799	0.988934
	738.399	0.372939	0.610687
	740.298	0.128799	0.358886
	742.197	0.122075	0.349393
	744.095	0.4615	0.679338
	745.994	0.530121	0.728094
	747.892	0.101935	0.319273
	749.791	-0.0317618	0.178218
	751.69	0.00799344	0.0894061
	753.588	0.293869	0.542097
	755.487	0.787031	0.887148
	757.386	0.970779	0.985281
	759.284	0.954737	0.977106
	761.183	1.06075	1.02993
	763.081	1.16184	1.07789
	764.98	1.18196	1.08718
	766.879	1.27879	1.13084
	768.777	1.34844	1.16123
	770.676	1.40681	1.18609
	772.575	1.09324	1.04558
	774.473	0.908047	0.952915
	776.372	0.951694	0.975548
	778.27	0.951931	0.975669
	780.169	0.525186	0.724697
	782.068	0.153904	0.392307
	783.966	0.225011	0.474353
	785.865	0.294359	0.542548
	787.764	0.303527	0.550933
	789.662	0.30696	0.55404
	791.561	0.350202	0.591779
	793.459	0.732804	0.85604
	795.358	0.632927	0.795567
	797.257	0.612265	0.782474
	799.155	0.628855	0.793003
	801.054	0.457551	0.676425
	802.952	0.117462	0.342727
	804.851	-0.0978123	0.31275
	806.75	0.261703	0.51157
	808.648	0.032566	0.180461
	810.547	0.227313	0.476773
	812.446	0.378531	0.615249
	814.344	0.467128	0.683468
	816.243	0.106379	0.326159
	818.141	-0.0673066	0.259435
	820.04	-0.274241	0.52368
	821.939	-0.0788658	0.28083
	823.837	0.274797	0.524211
	825.736	0.551564	0.742673
	827.635	0.642227	0.801391
	829.533	0.718974	0.847923
	831.432	0.457061	0.676063
	833.33	0.504101	0.710001
	835.229	0.275052	0.524454
	837.128	0.0750606	0.273972
	839.026	0.0119572	0.109349
	840.925	0.0976077	0.312422
	842.823	0.313862	0.560234
	844.722	0.302148	0.54968
	846.621	0.631033	0.794376
	848.519	0.480847	0.693431
	850.418	0.718585	0.847694
	852.317	0.602957	0.776503
	854.215	0.51607	0.71838
	856.114	0.788768	0.888126
	858.012	0.464116	0.681261
	859.911	0.219319	0.468315
	861.81	0.0248705	0.157704
	863.708	0.192639	0.438907
	865.607	0.238492	0.488356
	867.506	0.34656	0.588694
	869.404	0.360133	0.600111
	871.303	0.202127	0.449585
	873.201	-0.0390209	0.197537
	875.1	0.0532783	0.230821
	876.999	-0.0529095	0.230021
	878.897	-0.346218	0.588403
	880.796	-0.566812	0.752869
	882.694	-0.283809	0.532737
	884.593	-0.0266569	0.163269
	886.492	0.123736	0.351762
	888.39	-0.175	0.41833
	890.289	-0.24585	0.495833
	892.188	-0.176484	0.4201
	894.086	-0.0883474	0.297233
	895.985	0.410624	0.6408
	897.883	0.375983	0.613174
	899.782	0.863663	0.929334
	901.681	1.50406	1.2264
	903.579	2.87189	1.69467
	905.478	4.50968	2.1236
	907.377	6.60989	2.57097
	909.275	8.94889	2.99147
	911.174	12.8675	3.58714
	913.072	19.2158	4.38358
	914.971	29.71	5.45069
	916.87	45.7998	6.76756
	918.768	70.476	8.395
	920.667	107.91	10.388
	922.565	167.085	12.9261
	924.464	255.868	15.9959
	926.363	402.853	20.0712
	928.261	653.286	25.5595
	930.16	1046.93	32.3564
	932.059	1525.2	39.0538
	933.957	2017.49	44.9165
	935.856	2270.67	47.6515
	937.754	2382.09	48.8066
	939.653	2278.71	47.7358
	941.552	2162.86	46.5066
	943.45	1961.2	44.2855
	945.349	1774.77	42.128
	947.248	1525.61	39.059
	949.146	1315.16	36.2651
	951.045	1115.84	33.4043
	952.943	964.295	31.0531
	954.842	808.07	28.4266
	956.741	646.306	25.4226
	958.639	493.164	22.2073
	960.538	360.859	18.9963
	962.436	262.355	16.1974
	964.335	191.171	13.8265
	966.234	141.606	11.8998
	968.132	105.387	10.2658
	970.031	78.1736	8.84158
	971.93	57.633	7.59164
	973.828	42.2077	6.49674
	975.727	31.3977	5.60336
	977.625	23.3327	4.83039
	979.524	17.2111	4.14863
	981.423	12.9866	3.60369
	983.321	9.71285	3.11654
	985.22	6.61546	2.57205
	987.119	3.82978	1.95698
	989.017	2.07777	1.44145
	990.916	0.785175	0.886101
	992.814	-0.0304057	0.174372
	994.713	-0.251532	0.50153
	996.612	0.122982	0.350688
	998.51	1.40459	1.18516
	1000.41	2.31308	1.52088
	1002.31	3.66117	1.91342
	1004.21	4.24894	2.0613
	1006.1	4.81612	2.19457
	1008	5.35581	2.31426
	1009.9	5.72761	2.39324
	1011.8	5.61865	2.37037
	1013.7	6.21566	2.49312
	1015.6	6.49107	2.54776
	1017.5	6.89892	2.62658
	1019.4	6.65361	2.57946
	1021.29	7.54124	2.74613
	1023.19	9.36292	3.05989
	1025.09	12.3821	3.51882
	1026.99	18.5816	4.31063
	1028.89	30.0359	5.4805
	1030.79	46.2033	6.7973
	1032.69	80.2412	8.95775
	1034.58	124.16	11.1427
	1036.48	184.281	13.575
	1038.38	215.994	14.6967
	1040.28	203.327	14.2593
	1042.18	168.04	12.963
	1044.08	136.637	11.6892
	1045.98	107.606	10.3733
	1047.87	82.5383	9.08506
	1049.77	73.6767	8.58351
	1051.67	64.1553	8.0097
	1053.57	58.8274	7.6699
	1055.47	57.8044	7.60292
	1057.37	54.6578	7.39309
	1059.27	53.643	7.32414
	1061.16	51.9481	7.20751
	1063.06	48.7525	6.9823
	1064.96	45.8233	6.76929
	1066.86	44.6692	6.6835
	1068.76	42.3397	6.50689
	1070.66	41.0322	6.40564
	1072.56	40.8626	6.39239
	1074.46	39.9636	6.32167
	1076.35	41.857	6.4697
	1078.25	42.6802	6.53301
	1080.15	44.4084	6.66396
	1082.05	46.5094	6.81978
	1083.95	48.4401	6.95989
	1085.85	49.3809	7.02716
	1087.75	50.0368	7.07367
	1089.64	50.5537	7.11011
	1091.54	48.9222	6.99444
	1093.44	46.7965	6.84079
	1095.34	42.9665	6.55488
	1097.24	39.3842	6.27568
	1099.14	34.1681	5.84535
	1101.04	29.9648	5.47401
	1102.93	24.9951	4.99951
	1104.83	20.5387	4.53196
	1106.73	17.4036	4.17176
	1108.63	14.0677	3.75069
	1110.53	11.6126	3.40773
	1112.43	9.78208	3.12763
	1114.33	8.33028	2.88622
	1116.22	6.66541	2.58174
	1118.12	4.89358	2.21214
	1120.02	3.59073	1.89492
	1121.92	2.79527	1.67191
	1123.82	2.16249	1.47054
	1125.72	1.73747	1.31813
	1127.62	1.40812	1.18664
	1129.51	1.32815	1.15245
	1131.41	1.2076	1.09891
	1133.31	1.45882	1.20782
	1135.21	1.84034	1.35659
	1137.11	2.59148	1.60981
	1139.01	3.41967	1.84924
	1140.91	4.18854	2.04659
	1142.81	5.19149	2.27848
	1144.7	5.32388	2.30735
	1146.6	4.36374	2.08896
	1148.5	3.33955	1.82744
	1150.4	2.13204	1.46015
	1152.3	1.06325	1.03114
	1154.2	0.512498	0.71589
	1156.1	0.0991127	0.314822
	1157.99	-0.278678	0.5279
	1159.89	-0.410884	0.641003
	1161.79	-0.289501	0.538053
	1163.69	0.0398866	0.199716
	1165.59	0.0195291	0.139747
	1167.49	-0.350585	0.592102
	1169.39	-0.620592	0.787777
	1171.28	-0.981364	0.990638
	1173.18	-0.765681	0.875032
	1175.08	-0.305194	0.552443
	1176.98	-0.139184	0.373074
	1178.88	-0.369347	0.607739
	1180.78	-0.389006	0.623704
	1182.68	-0.272447	0.521965
	1184.57	-0.147491	0.384046
	1186.47	-0.114716	0.338698
	1188.37	-0.207131	0.455116
	1190.27	-0.00396107	0.062937
	1192.17	0.110177	0.33193
	1194.07	0.478021	0.691391
	1195.97	0.984219	0.992078
	1197.87	1.47409	1.21412
	1199.76	1.70393	1.30535
	1201.66	1.89083	1.37507
	1203.56	2.03408	1.42621
	1205.46	2.82056	1.67945
	1207.36	3.54976	1.88408
	1209.26	4.18967	2.04687
	1211.16	4.51562	2.125
	1213.05	5.20515	2.28148
	1214.95	6.87498	2.62202
	1216.85	9.12652	3.02101
	1218.75	12.1366	3.48376
	1220.65	15.7296	3.96605
	1222.55	20.3118	4.50686
	1224.45	25.2423	5.02418
	1226.34	30.8598	5.55516
	1228.24	36.4741	6.03938
	1230.14	42.45	6.51537
	1232.04	48.0672	6.93305
	1233.94	53.13	7.28904
	1235.84	56.9569	7.54698
	1237.74	59.8473	7.7361
	1239.63	59.755	7.73014
	1241.53	58.8426	7.67089
	1243.43	56.139	7.4926
	1245.33	53.2731	7.29884
	1247.23	48.8884	6.99202
	1249.13	44.595	6.67795
	1251.03	40.5032	6.36421
	1252.93	37.4271	6.11777
	1254.82	35.0211	5.91786
	1256.72	32.8779	5.73393
	1258.62	31.7335	5.63325
	1260.52	30.569	5.52893
	1262.42	29.5529	5.43625
	1264.32	28.3948	5.32867
	1266.22	27.5037	5.24439
	1268.11	26.7702	5.17399
	1270.01	25.7716	5.07657
	1271.91	25.5674	5.05643
	1273.81	24.5801	4.95783
	1275.71	24.1426	4.91352
	1277.61	23.288	4.82576
	1279.51	23.0606	4.80214
	1281.4	22.5826	4.75211
	1283.3	22.1116	4.7023
	1285.2	21.8609	4.67557
	1287.1	21.6242	4.65019
	1289	21.5605	4.64333
	1290.9	21.4388	4.6302
	1292.8	21.0593	4.58904
	1294.69	20.8648	4.5678
	1296.59	20.8049	4.56124
	1298.49	21.1613	4.60014
	1300.39	21.4116	4.62727
	1302.29	21.4327	4.62955
	1304.19	21.4291	4.62916
	1306.09	21.1766	4.60181
	1307.99	21.0738	4.59062
	1309.88	20.9851	4.58095
	1311.78	20.3588	4.51208
	1313.68	19.8293	4.45301
	1315.58	19.1838	4.37993
	1317.48	18.2481	4.27178
	1319.38	16.9708	4.11956
	1321.28	15.5367	3.94166
	1323.17	14.5145	3.8098
	1325.07	13.406	3.66142
	1326.97	11.8243	3.43865
	1328.87	10.3111	3.21109
	1330.77	8.57458	2.92824
	1332.67	7.19937	2.68316
	1334.57	5.52308	2.35012
	1336.46	4.27601	2.06785
	1338.36	3.07204	1.75272
	1340.26	2.05648	1.43404
	1342.16	1.16923	1.08131
	1344.06	0.297135	0.545101
	1345.96	0.36178	0.601481
	1347.86	0.0777762	0.278884
	1349.75	0.302462	0.549965
	1351.65	0.0804332	0.283608
	1353.55	0.243797	0.493758
	1355.45	0.596938	0.772617
	1357.35	0.96145	0.980536
	1359.25	1.47421	1.21417
	1361.15	1.65219	1.28537
	1363.05	2.12861	1.45898
	1364.94	2.90519	1.70446
	1366.84	3.69694	1.92274
	1368.74	4.41499	2.10119
	1370.64	5.37611	2.31864
	1372.54	6.98657	2.64321
	1374.44	8.40397	2.89896
	1376.34	10.0005	3.16236
	1378.23	11.1451	3.33843
	1380.13	12.1465	3.48518
	1382.03	13.4135	3.66245
	1383.93	14.5083	3.80898
	1385.83	15.0907	3.88467
	1387.73	15.0706	3.88208
	1389.63	14.8491	3.85346
	1391.52	14.1442	3.76088
	1393.42	13.6212	3.69069
	1395.32	12.5967	3.54918
	1397.22	11.2636	3.35613
	1399.12	9.72615	3.11868
	1401.02	8.30676	2.88214
	1402.92	7.25815	2.6941
	1404.81	6.51583	2.55261
	1406.71	5.78298	2.40478
	1408.61	5.2415	2.28943
	1410.51	4.59561	2.14374
	1412.41	4.08651	2.02151
	1414.31	3.30149	1.817
	1416.21	2.98314	1.72718
	1418.11	2.4725	1.57242
	1420	2.16746	1.47223
	1421.9	1.70568	1.30602
	1423.8	1.60584	1.26722
	1425.7	1.03084	1.0153
	1427.6	0.676275	0.82236
	1429.5	0.684645	0.827433
	1431.4	1.27277	1.12817
	1433.29	1.32663	1.15179
	1435.19	1.37914	1.17437
	1437.09	1.24665	1.11653
	1438.99	0.712754	0.844248
	1440.89	0.19165	0.437779
	1442.79	-0.0516409	0.227246
	1444.69	0.12121	0.348153
	1446.58	0.359074	0.599228
	1448.48	0.225142	0.474491
	1450.38	0.145079	0.380892
	1452.28	0.122631	0.350187
	1454.18	-0.007185	0.0847644
	1456.08	-0.17485	0.418151
	1457.98	0.0501806	0.22401
	1459.87	-0.273747	0.523209
	1461.77	-0.0424607	0.20606
	1463.67	0.104721	0.323606
	1465.57	0.293944	0.542166
	1467.47	0.141902	0.376699
	1469.37	-0.430075	0.655801
	1471.27	-0.132942	0.364612
	1473.17	-0.0736122	0.271316
	1475.06	-0.388177	0.623038
	1476.96	-0.562633	0.750089
	1478.86	-0.484078	0.695757
	1480.76	-0.471742	0.686834
	1482.66	-0.156371	0.395438
	1484.56	-0.163273	0.40407
	1486.46	0.505059	0.710675
	1488.35	0.361455	0.601211
	1490.25	0.299642	0.547396
	1492.15	0.423681	0.650908
	1494.05	0.469031	0.684858
	1495.95	0.0404006	0.200999
	1497.85	-0.193594	0.439993
	1499.75	-0.15375	0.39211
	1501.64	-0.0293608	0.17135
	1503.54	0.328128	0.572825
	1505.44	0.153663	0.391998
	1507.34	0.382367	0.618358
	1509.24	0.873128	0.934413
	1511.14	1.182	1.0872
	1513.04	1.32128	1.14947
	1514.93	1.27782	1.13041
	1516.83	1.38291	1.17597
	1518.73	1.51222	1.22972
	1520.63	1.78942	1.33769
	1522.53	2.09157	1.44623
	1524.43	2.19243	1.48068
	1526.33	2.79572	1.67204
	1528.23	2.87759	1.69634
	1530.12	3.63948	1.90774
	1532.02	4.25352	2.06241
	1533.92	5.1835	2.27673
	1535.82	5.69894	2.38724
	1537.72	6.10781	2.4714
	1539.62	6.79937	2.60756
	1541.52	7.18161	2.67985
	1543.41	7.51816	2.74193
	1545.31	7.6538	2.76655
	1547.21	8.13998	2.85307
	1549.11	8.13714	2.85257
	1551.01	7.852	2.80214
	1552.91	7.32285	2.70608
	1554.81	7.26623	2.6956
	1556.7	7.35964	2.71287
	1558.6	7.46078	2.73144
	1560.5	7.60698	2.75808
	1562.4	7.79034	2.79112
	1564.3	8.3795	2.89474
	1566.2	9.24692	3.04087
	1568.1	10.3785	3.22156
	1569.99	11.531	3.39573
	1571.89	13.0708	3.61536
	1573.79	15.21	3.9
	1575.69	17.974	4.23958
	1577.59	21.8299	4.67225
	1579.49	26.4339	5.14139
	1581.39	32.4785	5.69899
	1583.29	40.1534	6.33667
	1585.18	48.539	6.96699
	1587.08	55.7597	7.46724
	1588.98	60.1933	7.75843
	1590.88	61.8775	7.86623
	1592.78	60.9133	7.8047
	1594.68	57.2787	7.56827
	1596.58	50.6891	7.11963
	1598.47	43.3337	6.58283
	1600.37	36.4979	6.04135
	1602.27	31.8103	5.64006
	1604.17	28.5483	5.34306
	1606.07	26.7944	5.17633
	1607.97	25.4911	5.04887
	1609.87	24.6957	4.96947
	1611.76	24.2751	4.92697
	1613.66	23.9995	4.89893
	1615.56	23.4511	4.84263
	1617.46	22.9369	4.78925
	1619.36	21.8767	4.67725
	1621.26	21.6708	4.65519
	1623.16	20.183	4.49255
	1625.05	19.405	4.40511
	1626.95	18.2061	4.26686
	1628.85	16.6935	4.08577
	1630.75	14.6862	3.83226
	1632.65	13.2293	3.63721
	1634.55	11.7765	3.43169
	1636.45	10.9229	3.30499
	1638.34	10.1748	3.1898
	1640.24	9.56764	3.09316
	1642.14	9.13222	3.02196
