Generated file C:/Users/didvk/OneDrive - University of Florida/UF_Isaiah_06-16-2020-Tue/Analysis/Re0.1Mo0.9B2/Re0.1Mo0.9B2_HPXRD_run2_300_20220710 - Copy/mask&dat&fxye_4position/9_ReMoB2_45p0GPa_470psi_P1_C4_D1w_071.fxye using DIOPTAS
# == pyFAI calibration ==
# Distance Sample to Detector: 0.2103851508954585 m
# PONI: 8.889e-02, 8.665e-02 m
# Rotations: 0.008634 -0.000915 0.000000 rad
# 
# == Fit2d calibration ==
# Distance Sample-beamCenter: 210.393 mm
# Center: x=493.236, y=515.685 pix
# Tilt: 0.497 deg  TiltPlanRot: -173.953 deg
# 
# Detector Detector	 Spline= None	 PixelSize= 1.720e-04, 1.720e-04 m
#    Detector has a mask: False 
#    Detector has a dark current: False 
#    detector has a flat field: False 
# 
# Wavelength: 4.133e-11 m
# Mask applied: None
# Dark current applied: None
# Flat field applied: None
# Polarization factor: None
# Normalization factor: None
BANK	1	1129	1129 CONS	282.731	1.89862 0.4133 0.0 FXYE
	282.731	0.627056	0.791869
	284.629	0.050203	0.22406
	286.528	-0.367966	0.606602
	288.427	0.103089	0.321075
	290.325	0.743882	0.862486
	292.224	1.28732	1.1346
	294.122	1.44423	1.20176
	296.021	1.2017	1.09622
	297.92	1.39969	1.18309
	299.818	0.753313	0.867936
	301.717	0.170937	0.413446
	303.616	-0.340157	0.58323
	305.514	-0.0347317	0.186365
	307.413	1.14015	1.06778
	309.311	2.48335	1.57587
	311.21	3.01498	1.73637
	313.109	2.78431	1.66862
	315.007	1.8245	1.35074
	316.906	1.17802	1.08537
	318.805	0.81267	0.901482
	320.703	0.923851	0.961172
	322.602	1.29049	1.136
	324.5	1.73816	1.31839
	326.399	2.23658	1.49552
	328.298	2.57312	1.6041
	330.196	2.76019	1.66138
	332.095	3.12623	1.76811
	333.993	3.12569	1.76796
	335.892	4.26974	2.06634
	337.791	5.81433	2.41129
	339.689	7.15313	2.67453
	341.588	9.21565	3.03573
	343.487	12.705	3.56441
	345.385	17.8727	4.22762
	347.284	24.5712	4.95693
	349.182	29.8487	5.4634
	351.081	30.7484	5.54512
	352.98	26.7568	5.1727
	354.878	19.555	4.4221
	356.777	12.4163	3.52368
	358.676	7.56088	2.7497
	360.574	4.55978	2.13536
	362.473	3.76068	1.93925
	364.371	3.18426	1.78445
	366.27	2.77866	1.66693
	368.169	2.43567	1.56066
	370.067	2.24134	1.49711
	371.966	1.5998	1.26483
	373.864	1.35225	1.16286
	375.763	1.0295	1.01465
	377.662	1.04503	1.02227
	379.56	1.15391	1.0742
	381.459	1.04877	1.02409
	383.358	0.593851	0.770617
	385.256	0.441282	0.66429
	387.155	0.484466	0.696036
	389.053	0.0249396	0.157923
	390.952	0.285838	0.534638
	392.851	0.876275	0.936096
	394.749	1.02631	1.01307
	396.648	0.797105	0.892807
	398.547	0.557952	0.746962
	400.445	0.490506	0.700361
	402.344	0.638253	0.798907
	404.242	0.35321	0.594315
	406.141	0.248456	0.498453
	408.04	0.709358	0.842234
	409.938	0.567609	0.753398
	411.837	0.632267	0.795152
	413.735	0.526685	0.725731
	415.634	0.958331	0.978944
	417.533	1.18036	1.08644
	419.431	0.833513	0.912969
	421.33	0.718176	0.847453
	423.229	0.243122	0.493074
	425.127	0.560483	0.748654
	427.026	0.577061	0.759645
	428.924	0.460882	0.678883
	430.823	0.113657	0.337131
	432.722	-0.037557	0.193796
	434.62	0.354736	0.595597
	436.519	0.165152	0.406389
	438.418	0.133874	0.365889
	440.316	0.165029	0.406238
	442.215	-0.0967941	0.311118
	444.113	0.316537	0.562616
	446.012	0.766445	0.875469
	447.911	0.570819	0.755525
	449.809	0.121703	0.34886
	451.708	-0.099419	0.315308
	453.606	0.00108484	0.0329369
	455.505	0.396292	0.629517
	457.404	0.384625	0.620181
	459.302	0.420994	0.64884
	461.201	0.522353	0.72274
	463.1	0.55688	0.746244
	464.998	0.293103	0.54139
	466.897	-0.0588743	0.24264
	468.795	0.210785	0.459113
	470.694	0.27641	0.525747
	472.593	0.330575	0.574956
	474.491	0.340506	0.583529
	476.39	0.428661	0.654722
	478.289	0.462421	0.680015
	480.187	0.708035	0.841448
	482.086	0.62445	0.790221
	483.984	1.01706	1.0085
	485.883	0.819559	0.905295
	487.782	0.732646	0.855948
	489.68	0.594465	0.771015
	491.579	0.615974	0.78484
	493.478	0.435548	0.65996
	495.376	0.236727	0.486546
	497.275	0.293907	0.542132
	499.173	0.932921	0.965879
	501.072	0.922783	0.960616
	502.971	0.831657	0.911953
	504.869	-0.0074272	0.0861812
	506.768	0.0509884	0.225806
	508.666	0.437964	0.661789
	510.565	0.899666	0.948507
	512.464	0.95459	0.977031
	514.362	0.861804	0.928334
	516.261	0.29061	0.539083
	518.16	0.04785	0.218746
	520.058	0.214836	0.463504
	521.957	-0.172868	0.415774
	523.855	0.319743	0.565458
	525.754	0.515612	0.718061
	527.653	0.912122	0.955051
	529.551	0.708213	0.841554
	531.45	0.642383	0.801488
	533.349	0.828939	0.910461
	535.247	0.792406	0.890172
	537.146	0.610966	0.781643
	539.044	0.502709	0.70902
	540.943	0.87326	0.934484
	542.842	1.35994	1.16617
	544.74	1.18752	1.08973
	546.639	1.04175	1.02066
	548.537	0.739884	0.860165
	550.436	0.50367	0.709697
	552.335	-0.000848032	0.029121
	554.233	-0.153846	0.392232
	556.132	-0.0418585	0.204594
	558.031	0.70725	0.840982
	559.929	1.49903	1.22435
	561.828	1.842	1.3572
	563.726	1.7941	1.33944
	565.625	1.65031	1.28464
	567.524	1.40576	1.18565
	569.422	1.61018	1.26893
	571.321	1.22867	1.10845
	573.22	1.64119	1.28109
	575.118	1.63257	1.27772
	577.017	1.55358	1.24643
	578.915	1.50198	1.22555
	580.814	1.21488	1.10222
	582.713	0.556657	0.746094
	584.611	0.150672	0.388164
	586.51	-0.100338	0.316762
	588.408	0.723317	0.85048
	590.307	1.15559	1.07498
	592.206	1.17569	1.08429
	594.104	0.660693	0.81283
	596.003	0.562781	0.750187
	597.902	0.140901	0.375368
	599.8	-0.146362	0.382573
	601.699	-0.40698	0.63795
	603.597	-0.017859	0.133638
	605.496	-0.135738	0.368427
	607.395	0.101118	0.31799
	609.293	-0.226277	0.475686
	611.192	-0.0779597	0.279213
	613.091	0.28686	0.535593
	614.989	0.425496	0.6523
	616.888	0.634846	0.796772
	618.786	0.160748	0.400935
	620.685	0.0683859	0.261507
	622.584	0.0736333	0.271355
	624.482	0.132552	0.364077
	626.381	0.0679178	0.260611
	628.279	0.533654	0.730516
	630.178	1.10164	1.04959
	632.077	1.63461	1.27852
	633.975	1.5112	1.22931
	635.874	1.3094	1.14429
	637.773	2.04416	1.42974
	639.671	2.88976	1.69993
	641.57	3.3284	1.82439
	643.468	3.28096	1.81134
	645.367	3.29129	1.81419
	647.266	3.36213	1.83361
	649.164	4.3248	2.07961
	651.063	4.99271	2.23444
	652.962	5.35609	2.31432
	654.86	5.49977	2.34516
	656.759	6.19079	2.48813
	658.657	7.8961	2.81
	660.556	10.4636	3.23474
	662.455	15.1688	3.89471
	664.353	21.7338	4.66195
	666.252	28.9441	5.37998
	668.15	35.9093	5.99244
	670.049	42.1591	6.49301
	671.948	45.8569	6.77177
	673.846	45.9468	6.77841
	675.745	43.4322	6.59031
	677.644	39.9279	6.31886
	679.542	36.3513	6.02921
	681.441	34.4451	5.869
	683.339	34.2243	5.85015
	685.238	35.4834	5.9568
	687.137	39.2104	6.26182
	689.035	46.4595	6.81612
	690.934	59.4344	7.70937
	692.833	80.9644	8.99802
	694.731	113.858	10.6704
	696.63	153.418	12.3862
	698.528	188.8	13.7404
	700.427	208.717	14.447
	702.326	208.247	14.4308
	704.224	188.794	13.7402
	706.123	161.08	12.6917
	708.021	130.227	11.4117
	709.92	100.484	10.0242
	711.819	74.2243	8.61535
	713.717	53.0213	7.28157
	715.616	38.7239	6.22285
	717.515	28.6972	5.35698
	719.413	21.2839	4.61344
	721.312	16.7305	4.0903
	723.21	13.1889	3.63165
	725.109	10.1015	3.17828
	727.008	7.81108	2.79483
	728.906	6.4384	2.5374
	730.805	5.38569	2.32071
	732.704	4.38564	2.09419
	734.602	3.6104	1.90011
	736.501	2.79686	1.67238
	738.399	2.37542	1.54124
	740.298	2.06771	1.43795
	742.197	1.82417	1.35062
	744.095	1.69061	1.30023
	745.994	1.79609	1.34018
	747.892	1.7125	1.30862
	749.791	1.22255	1.10569
	751.69	0.745681	0.863528
	753.588	0.389255	0.623903
	755.487	0.477723	0.691175
	757.386	0.508241	0.712911
	759.284	0.400174	0.632593
	761.183	0.332188	0.576358
	763.081	0.5899	0.768049
	764.98	0.273404	0.52288
	766.879	0.64655	0.804084
	768.777	0.558057	0.747032
	770.676	0.175758	0.419235
	772.575	-0.125912	0.354841
	774.473	-0.0661378	0.257173
	776.372	0.271051	0.520625
	778.27	0.745446	0.863392
	780.169	0.824432	0.907982
	782.068	1.15197	1.0733
	783.966	1.00424	1.00212
	785.865	0.811484	0.900824
	787.764	0.395302	0.628731
	789.662	0.366943	0.605758
	791.561	0.385386	0.620795
	793.459	0.357645	0.598034
	795.358	0.343724	0.58628
	797.257	0.059902	0.244749
	799.155	0.0932955	0.305443
	801.054	-0.0012506	0.0353638
	802.952	0.317053	0.563075
	804.851	0.604906	0.777757
	806.75	0.556176	0.745772
	808.648	0.634192	0.796362
	810.547	0.402872	0.634722
	812.446	0.0145615	0.120671
	814.344	0.0147764	0.121558
	816.243	-0.497668	0.705456
	818.141	-0.109597	0.331054
	820.04	0.60324	0.776685
	821.939	1.55898	1.24859
	823.837	1.43228	1.19678
	825.736	0.691717	0.831695
	827.635	0.773722	0.879615
	829.533	0.994957	0.997475
	831.432	0.908569	0.953189
	833.33	0.537758	0.73332
	835.229	0.388652	0.62342
	837.128	0.242231	0.492169
	839.026	0.0474678	0.217871
	840.925	0.0353806	0.188097
	842.823	0.359901	0.599917
	844.722	0.770623	0.877851
	846.621	1.16313	1.07849
	848.519	1.15554	1.07496
	850.418	1.02521	1.01253
	852.317	0.601889	0.775815
	854.215	0.394448	0.628051
	856.114	0.568006	0.753661
	858.012	0.636185	0.797612
	859.911	0.60668	0.778897
	861.81	0.717437	0.847017
	863.708	0.407378	0.638262
	865.607	0.194623	0.441161
	867.506	0.0488073	0.220924
	869.404	0.12563	0.354443
	871.303	0.0996629	0.315694
	873.201	0.152045	0.389929
	875.1	-0.0213127	0.145989
	876.999	-0.116533	0.34137
	878.897	-0.174733	0.418011
	880.796	0.0171614	0.131002
	882.694	-0.0994001	0.315278
	884.593	-0.56779	0.753518
	886.492	-0.763446	0.873754
	888.39	-0.483699	0.695485
	890.289	-0.128226	0.358086
	892.188	0.337648	0.581075
	894.086	0.56718	0.753114
	895.985	0.337964	0.581347
	897.883	0.106017	0.325602
	899.782	0.249047	0.499046
	901.681	0.778948	0.88258
	903.579	1.22579	1.10716
	905.478	1.88119	1.37156
	907.377	2.87846	1.6966
	909.275	4.78047	2.18643
	911.174	7.29961	2.70178
	913.072	10.4051	3.2257
	914.971	14.0272	3.74529
	916.87	18.2033	4.26653
	918.768	23.3362	4.83076
	920.667	29.4492	5.42671
	922.565	37.479	6.12201
	924.464	46.4029	6.81197
	926.363	58.453	7.64546
	928.261	73.2483	8.55852
	930.16	92.5158	9.61851
	932.059	118.693	10.8946
	933.957	154.088	12.4132
	935.856	203.064	14.2501
	937.754	271.008	16.4623
	939.653	361.229	19.006
	941.552	466.937	21.6087
	943.45	590.574	24.3017
	945.349	709.566	26.6377
	947.248	837.892	28.9464
	949.146	952.703	30.8659
	951.045	1045.91	32.3406
	952.943	1099.9	33.1648
	954.842	1111.49	33.339
	956.741	1087.21	32.9729
	958.639	1011.3	31.8009
	960.538	906.483	30.1079
	962.436	793.125	28.1625
	964.335	700.297	26.4631
	966.234	616.099	24.8213
	968.132	537.996	23.1947
	970.031	455.731	21.3478
	971.93	378.847	19.464
	973.828	313.707	17.7118
	975.727	258.471	16.077
	977.625	212.086	14.5632
	979.524	172.57	13.1366
	981.423	138.593	11.7726
	983.321	111.042	10.5377
	985.22	88.0238	9.3821
	987.119	69.2283	8.32035
	989.017	53.8354	7.33726
	990.916	41.4949	6.44165
	992.814	30.911	5.55977
	994.713	23.4058	4.83796
	996.612	17.8255	4.22202
	998.51	13.2068	3.63412
	1000.41	9.17492	3.02901
	1002.31	5.88035	2.42494
	1004.21	3.78401	1.94525
	1006.1	2.48613	1.57675
	1008	1.74612	1.32141
	1009.9	1.02112	1.01051
	1011.8	0.190613	0.436593
	1013.7	-0.0290166	0.170343
	1015.6	0.0807677	0.284197
	1017.5	-0.0256435	0.160136
	1019.4	0.0487721	0.220844
	1021.29	0.112421	0.335292
	1023.19	0.425211	0.652082
	1025.09	0.266533	0.516269
	1026.99	0.0257901	0.160593
	1028.89	-0.0832149	0.28847
	1030.79	-0.333374	0.577386
	1032.69	-0.877755	0.936886
	1034.58	-1.08162	1.04001
	1036.48	-1.24688	1.11664
	1038.38	-1.29337	1.13726
	1040.28	-0.748419	0.865112
	1042.18	-0.0325085	0.180301
	1044.08	1.60297	1.26609
	1045.98	4.33945	2.08314
	1047.87	8.05938	2.8389
	1049.77	11.9759	3.46062
	1051.67	15.3948	3.92362
	1053.57	17.9393	4.23548
	1055.47	20.4314	4.52011
	1057.37	22.0304	4.69366
	1059.27	22.9954	4.79535
	1061.16	23.2394	4.82073
	1063.06	23.7228	4.8706
	1064.96	24.26	4.92544
	1066.86	24.956	4.9956
	1068.76	25.7658	5.076
	1070.66	27.0158	5.19768
	1072.56	28.3797	5.32726
	1074.46	30.2399	5.49908
	1076.35	32.0917	5.66496
	1078.25	33.6776	5.80324
	1080.15	35.8476	5.98729
	1082.05	37.5684	6.12931
	1083.95	39.7504	6.30479
	1085.85	41.9848	6.47957
	1087.75	44.7206	6.68734
	1089.64	46.6404	6.82938
	1091.54	48.9953	6.99967
	1093.44	51.3971	7.16918
	1095.34	54.4363	7.3781
	1097.24	56.8466	7.53967
	1099.14	58.8227	7.6696
	1101.04	61.5327	7.84428
	1102.93	63.4723	7.96695
	1104.83	65.0189	8.06343
	1106.73	66.0428	8.12668
	1108.63	65.9777	8.12267
	1110.53	65.4344	8.08916
	1112.43	63.1495	7.94667
	1114.33	60.649	7.78775
	1116.22	59.1842	7.69312
	1118.12	58.376	7.64042
	1120.02	59.87	7.73757
	1121.92	60.5015	7.77827
	1123.82	62.8034	7.92486
	1125.72	65.3259	8.08244
	1127.62	66.8584	8.1767
	1129.51	67.0502	8.18842
	1131.41	63.9834	7.99896
	1133.31	58.0708	7.62042
	1135.21	50.8951	7.13408
	1137.11	44.2758	6.654
	1139.01	35.8321	5.98599
	1140.91	30.2764	5.5024
	1142.81	24.101	4.90928
	1144.7	20.0878	4.48194
	1146.6	16.02	4.0025
	1148.5	12.6461	3.55614
	1150.4	9.54782	3.08996
	1152.3	7.24263	2.69121
	1154.2	6.04574	2.45881
	1156.1	5.55314	2.35651
	1157.99	5.26136	2.29377
	1159.89	4.33351	2.08171
	1161.79	3.11284	1.76432
	1163.69	1.62158	1.27341
	1165.59	0.698068	0.835505
	1167.49	0.132125	0.36349
	1169.39	-0.779751	0.883035
	1171.28	-1.20766	1.09894
	1173.18	-1.49218	1.22155
	1175.08	-0.0274702	0.165741
	1176.98	2.52669	1.58956
	1178.88	5.64737	2.37642
	1180.78	9.40841	3.06731
	1182.68	12.0466	3.47081
	1184.57	14.1177	3.75735
	1186.47	14.4927	3.80693
	1188.37	15.6611	3.95741
	1190.27	15.5737	3.94636
	1192.17	15.9033	3.9879
	1194.07	15.266	3.90718
	1195.97	14.7486	3.84039
	1197.87	14.619	3.82348
	1199.76	13.9759	3.73844
	1201.66	14.2467	3.77448
	1203.56	13.36	3.65513
	1205.46	13.7558	3.70888
	1207.36	13.315	3.64897
	1209.26	13.8405	3.72028
	1211.16	13.5079	3.67531
	1213.05	14.0549	3.74899
	1214.95	14.2925	3.78055
	1216.85	14.3916	3.79362
	1218.75	14.5921	3.81995
	1220.65	14.5007	3.80798
	1222.55	15.5102	3.9383
	1224.45	15.722	3.9651
	1226.34	16.9393	4.11573
	1228.24	17.6537	4.20163
	1230.14	19.459	4.41123
	1232.04	21.346	4.62018
	1233.94	23.9174	4.89054
	1235.84	25.9878	5.09782
	1237.74	28.4366	5.3326
	1239.63	31.2737	5.59229
	1241.53	34.4191	5.86678
	1243.43	39.0553	6.24942
	1245.33	43.116	6.56627
	1247.23	50.3353	7.09474
	1249.13	55.6245	7.45818
	1251.03	66.7537	8.17029
	1252.93	76.8822	8.76825
	1254.82	87.911	9.37609
	1256.72	99.5854	9.97925
	1258.62	108.901	10.4356
	1260.52	112.679	10.615
	1262.42	116.464	10.7918
	1264.32	116.99	10.8162
	1266.22	111.332	10.5514
	1268.11	106.855	10.337
	1270.01	97.7627	9.8875
	1271.91	90.3978	9.50778
	1273.81	82.4739	9.08152
	1275.71	76.1432	8.72601
	1277.61	71.451	8.45287
	1279.51	67.6974	8.22784
	1281.4	65.1959	8.0744
	1283.3	63.5848	7.97401
	1285.2	62.8252	7.92623
	1287.1	62.88	7.92969
	1289	62.3998	7.89935
	1290.9	62.5381	7.9081
	1292.8	61.8807	7.86643
	1294.69	61.5303	7.84412
	1296.59	60.83	7.79936
	1298.49	60.2736	7.76361
	1300.39	59.9077	7.74001
	1302.29	59.8181	7.73421
	1304.19	59.5196	7.7149
	1306.09	58.582	7.65389
	1307.99	57.0298	7.55181
	1309.88	55.859	7.47389
	1311.78	55.0057	7.41658
	1313.68	54.7567	7.39978
	1315.58	53.2319	7.29602
	1317.48	51.2521	7.15905
	1319.38	49.1274	7.0091
	1321.28	47.4146	6.88583
	1323.17	45.3881	6.73707
	1325.07	43.121	6.56666
	1326.97	41.4806	6.44055
	1328.87	39.4413	6.28023
	1330.77	37.7151	6.14126
	1332.67	36.2163	6.018
	1334.57	35.2278	5.9353
	1336.46	34.1816	5.84651
	1338.36	33.7846	5.81245
	1340.26	33.8838	5.82098
	1342.16	34.756	5.89543
	1344.06	36.0044	6.00037
	1345.96	38.1407	6.17581
	1347.86	39.2984	6.26884
	1349.75	39.7499	6.30475
	1351.65	37.4909	6.12298
	1353.55	33.8318	5.81651
	1355.45	27.7097	5.264
	1357.35	21.5848	4.64594
	1359.25	15.4526	3.93097
	1361.15	10.5603	3.24967
	1363.05	6.21237	2.49246
	1364.94	2.81696	1.67838
	1366.84	0.334814	0.578631
	1368.74	-1.04789	1.02367
	1370.64	-1.77733	1.33316
	1372.54	-1.75461	1.32462
	1374.44	-1.41073	1.18774
	1376.34	-0.720272	0.848688
	1378.23	-0.825031	0.908312
	1380.13	-0.70748	0.841118
	1382.03	-0.159418	0.399272
	1383.93	0.864464	0.929765
	1385.83	2.04303	1.42935
	1387.73	3.15667	1.7767
	1389.63	4.33597	2.0823
	1391.52	5.95169	2.43961
	1393.42	8.15797	2.85622
	1395.32	10.3719	3.22054
	1397.22	13.3719	3.65675
	1399.12	16.0464	4.0058
	1401.02	18.6775	4.32175
	1402.92	19.7789	4.44735
	1404.81	19.812	4.45106
	1406.71	19.0566	4.36538
	1408.61	17.5838	4.19331
	1410.51	15.9684	3.99605
	1412.41	13.5053	3.67495
	1414.31	11.0126	3.31852
	1416.21	8.61169	2.93457
	1418.11	6.47152	2.54392
	1420	4.6714	2.16134
	1421.9	3.80407	1.9504
	1423.8	3.07419	1.75334
	1425.7	2.50145	1.5816
	1427.6	1.52187	1.23364
	1429.5	0.984974	0.992459
	1431.4	0.89978	0.948567
	1433.29	0.652203	0.807591
	1435.19	0.724689	0.851287
	1437.09	0.166392	0.407911
	1438.99	0.0878982	0.296476
	1440.89	-0.10487	0.323836
	1442.79	-0.0576725	0.240151
	1444.69	0.00885765	0.0941151
	1446.58	-0.161647	0.402054
	1448.48	-0.0267235	0.163473
	1450.38	-0.246939	0.49693
	1452.28	-0.399378	0.631964
	1454.18	-0.324486	0.569637
	1456.08	-0.323415	0.568696
	1457.98	-0.248886	0.498885
	1459.87	-0.175828	0.419319
	1461.77	0.0474262	0.217776
	1463.67	0.173443	0.416464
	1465.57	0.0207103	0.143911
	1467.47	-0.284475	0.533362
	1469.37	-0.418606	0.646998
	1471.27	-0.171665	0.414325
	1473.17	-0.0604164	0.245798
	1475.06	-0.141628	0.376335
	1476.96	-0.121412	0.348442
	1478.86	0.240491	0.490399
	1480.76	0.319205	0.564982
	1482.66	0.18177	0.426345
	1484.56	0.51952	0.720777
	1486.46	0.850909	0.922447
	1488.35	0.984349	0.992144
	1490.25	1.24269	1.11476
	1492.15	1.40718	1.18624
	1494.05	1.293	1.1371
	1495.95	1.03278	1.01626
	1497.85	0.883909	0.940164
	1499.75	1.12016	1.05838
	1501.64	0.808025	0.898902
	1503.54	0.913035	0.955529
	1505.44	0.88102	0.938626
	1507.34	0.998511	0.999255
	1509.24	0.520474	0.721439
	1511.14	0.0370867	0.192579
	1513.04	-0.412572	0.642318
	1514.93	-0.578312	0.760468
	1516.83	-0.461267	0.679166
	1518.73	-0.202336	0.449817
	1520.63	-0.316437	0.562528
	1522.53	-0.251957	0.501954
	1524.43	-0.383257	0.619078
	1526.33	0.00652198	0.0807588
	1528.23	-0.0141013	0.118749
	1530.12	0.00809879	0.0899933
	1532.02	-0.226959	0.476402
	1533.92	-0.218737	0.467694
	1535.82	-0.0122136	0.110515
	1537.72	0.0112137	0.105895
	1539.62	0.20094	0.448263
	1541.52	0.103796	0.322174
	1543.41	0.318668	0.564507
	1545.31	0.736542	0.85822
	1547.21	0.969342	0.984552
	1549.11	1.04606	1.02277
	1551.01	0.932523	0.965672
	1552.91	1.02799	1.0139
	1554.81	1.3288	1.15274
	1556.7	1.74088	1.31942
	1558.6	2.15994	1.46967
	1560.5	2.27762	1.50918
	1562.4	6.47172	2.54396
	1564.3	8.81178	2.96846
	1566.2	10.226	3.19781
	1568.1	10.9578	3.31026
	1569.99	11.6255	3.40962
	1571.89	11.1614	3.34087
	1573.79	9.87436	3.14235
	1575.69	5.47053	2.33892
	1577.59	5.98162	2.44574
	1579.49	6.06616	2.46296
	1581.39	6.56633	2.56248
	1583.29	7.23278	2.68938
	1585.18	7.55973	2.7495
	1587.08	8.13088	2.85147
	1588.98	8.53472	2.92143
	1590.88	9.27381	3.04529
	1592.78	9.49625	3.0816
	1594.68	9.93238	3.15157
	1596.58	10.1684	3.18879
	1598.47	10.4973	3.23995
	1600.37	10.8398	3.29239
	1602.27	11.7543	3.42845
	1604.17	13.3877	3.65892
	1606.07	14.1774	3.76529
	1607.97	15.0539	3.87994
	1609.87	16.3031	4.03771
	1611.76	18.5207	4.30357
	1613.66	20.6944	4.54911
	1615.56	22.7342	4.76804
	1617.46	25.0773	5.00773
	1619.36	27.2623	5.22133
	1621.26	29.6453	5.44475
	1623.16	31.1327	5.57967
	1625.05	31.8536	5.6439
	1626.95	31.8238	5.64126
	1628.85	30.591	5.53091
	1630.75	28.581	5.34612
	1632.65	25.9503	5.09414
	1634.55	23.5764	4.85555
	1636.45	21.6145	4.64913
	1638.34	19.6743	4.43557
