Generated file C:/Users/didvk/Downloads/Dioptas_Win64_0.5.0/1_mask&dat&fxye_1position/11_ReMoB2_550psi_noRuby_S_P1_C1_D1w_073.fxye using DIOPTAS
# == pyFAI calibration ==
# Distance Sample to Detector: 0.21643023575112377 m
# PONI: 8.848e-02, 8.638e-02 m
# Rotations: 0.008179 -0.001145 -0.000000 rad
# 
# == Fit2d calibration ==
# Distance Sample-beamCenter: 216.438 mm
# Center: x=491.896, y=512.970 pix
# Tilt: 0.473 deg  TiltPlanRot: -172.032 deg
# 
# Detector Pilatus CdTe 1M	 PixelSize= 1.720e-04, 1.720e-04 m
#    Detector has a mask: True 
#    Detector has a dark current: False 
#    detector has a flat field: False 
# 
# Wavelength: 4.133e-11 m
# Mask applied: None
# Dark current applied: None
# Flat field applied: None
# Polarization factor: None
# Normalization factor: None
BANK	1	1006	1006 CONS	293.393	1.90033 0.4133 0.0 FXYE
	293.393	0.472962	0.687722
	295.294	0.954785	0.977131
	297.194	0.360168	0.60014
	299.094	0.181081	0.425536
	300.995	-0.0947123	0.307754
	302.895	0.324432	0.569589
	304.795	0.794169	0.891162
	306.696	1.24583	1.11617
	308.596	1.40163	1.1839
	310.496	1.41691	1.19034
	312.397	1.05243	1.02588
	314.297	0.622421	0.788937
	316.197	0.256265	0.506226
	318.098	-0.305262	0.552505
	319.998	0.466132	0.682738
	321.898	1.00612	1.00306
	323.799	1.47628	1.21502
	325.699	1.56365	1.25046
	327.599	1.52575	1.23521
	329.5	1.33018	1.15334
	331.4	0.988981	0.994475
	333.3	0.59217	0.769526
	335.201	1.38771	1.17801
	337.101	2.44432	1.56343
	339.001	3.10227	1.76133
	340.902	3.34616	1.82925
	342.802	4.28734	2.07059
	344.702	5.49617	2.34439
	346.603	9.12639	3.02099
	348.503	14.4939	3.80709
	350.403	19.5506	4.4216
	352.304	23.9277	4.8916
	354.204	24.2586	4.9253
	356.104	20.908	4.57253
	358.005	14.5698	3.81704
	359.905	8.88767	2.98122
	361.805	5.26664	2.29492
	363.706	3.71693	1.92793
	365.606	2.82775	1.68159
	367.506	2.60172	1.61299
	369.407	2.38167	1.54327
	371.307	2.01138	1.41823
	373.207	1.6261	1.27518
	375.108	1.43408	1.19753
	377.008	1.39844	1.18256
	378.908	1.33076	1.15359
	380.808	1.35249	1.16297
	382.709	1.33511	1.15547
	384.609	1.59238	1.2619
	386.509	1.36998	1.17046
	388.41	1.2553	1.1204
	390.31	1.07439	1.03653
	392.21	1.00702	1.00351
	394.111	0.118836	0.344727
	396.011	-0.0922553	0.303736
	397.911	0.141448	0.376095
	399.812	0.906493	0.952099
	401.712	1.51778	1.23198
	403.612	1.53576	1.23926
	405.513	1.38961	1.17882
	407.413	1.11179	1.05441
	409.313	0.889227	0.942988
	411.214	1.12413	1.06025
	413.114	1.30971	1.14443
	415.014	1.08936	1.04372
	416.915	0.40542	0.636726
	418.815	-0.0214484	0.146453
	420.715	0.148348	0.38516
	422.616	0.311515	0.558135
	424.516	0.268168	0.517849
	426.416	0.454963	0.674509
	428.317	-0.00495758	0.0704101
	430.217	0.45193	0.672257
	432.117	0.487583	0.698272
	434.018	0.763429	0.873744
	435.918	0.604467	0.777475
	437.818	0.426714	0.653234
	439.719	-0.0324423	0.180117
	441.619	0.0902044	0.30034
	443.519	0.185447	0.430636
	445.42	0.767459	0.876047
	447.32	0.482166	0.694382
	449.22	0.698094	0.83552
	451.121	0.804911	0.897168
	453.021	1.1681	1.08079
	454.921	0.844346	0.918883
	456.822	0.717649	0.847141
	458.722	0.40678	0.637793
	460.622	0.657843	0.811075
	462.523	0.721471	0.849395
	464.423	0.895818	0.946476
	466.323	1.14451	1.06982
	468.224	1.28723	1.13456
	470.124	0.841204	0.917172
	472.024	0.284377	0.53327
	473.924	0.0674249	0.259663
	475.825	0.167665	0.409469
	477.725	0.489489	0.699635
	479.625	0.342651	0.585364
	481.526	0.473936	0.68843
	483.426	0.283699	0.532634
	485.326	0.315834	0.561991
	487.227	0.152707	0.390777
	489.127	0.429345	0.655244
	491.027	0.540687	0.735314
	492.928	0.586585	0.765888
	494.828	0.684608	0.82741
	496.728	0.446397	0.668129
	498.629	0.00846925	0.0920285
	500.529	-0.401001	0.633246
	502.429	-0.0137039	0.117064
	504.33	0.695001	0.833667
	506.23	1.04827	1.02385
	508.13	1.17393	1.08348
	510.031	1.08224	1.04031
	511.931	0.954867	0.977173
	513.831	0.553845	0.744208
	515.732	0.642388	0.801491
	517.632	0.340577	0.583589
	519.532	0.348919	0.590694
	521.433	0.493481	0.702482
	523.333	0.688144	0.829545
	525.233	0.540438	0.735145
	527.134	0.172562	0.415406
	529.034	0.111804	0.334372
	530.934	0.175928	0.419438
	532.835	0.342072	0.584869
	534.735	0.709301	0.8422
	536.635	0.516464	0.718655
	538.536	0.640418	0.800261
	540.436	0.441568	0.664506
	542.336	0.505459	0.710957
	544.237	-0.182338	0.427011
	546.137	0.196048	0.442774
	548.037	0.471363	0.686559
	549.938	1.03998	1.01979
	551.838	0.661759	0.813486
	553.738	0.19488	0.441452
	555.639	-0.148685	0.385597
	557.539	0.0648795	0.254715
	559.439	-0.206929	0.454895
	561.34	-0.0900043	0.300007
	563.24	-0.0475016	0.217949
	565.14	-0.0677792	0.260344
	567.041	0.476277	0.690128
	568.941	0.919359	0.958832
	570.841	1.38564	1.17713
	572.741	1.38155	1.17539
	574.642	1.15628	1.0753
	576.542	1.5514	1.24555
	578.442	1.80746	1.34442
	580.343	2.42969	1.55874
	582.243	2.43068	1.55907
	584.143	2.64193	1.6254
	586.044	2.42952	1.55869
	587.944	1.6372	1.27953
	589.844	1.29659	1.13868
	591.745	0.796412	0.892419
	593.645	0.769118	0.876994
	595.545	0.658351	0.811389
	597.446	0.556891	0.746251
	599.346	0.423912	0.651085
	601.246	0.225045	0.47439
	603.147	0.394997	0.628488
	605.047	0.745104	0.863194
	606.947	1.003	1.0015
	608.848	0.810597	0.900331
	610.748	0.775153	0.880428
	612.648	0.927862	0.963256
	614.549	0.983277	0.991603
	616.449	0.64482	0.803007
	618.349	-0.233863	0.483594
	620.25	-0.328592	0.57323
	622.15	-0.0140421	0.1185
	624.05	0.579338	0.761143
	625.951	0.775541	0.880648
	627.851	1.10234	1.04993
	629.751	1.19766	1.09438
	631.652	1.07603	1.03732
	633.552	0.87145	0.933515
	635.452	0.999451	0.999725
	637.353	1.70008	1.30387
	639.253	2.93861	1.71424
	641.153	4.2584	2.06359
	643.054	6.31586	2.51314
	644.954	7.40608	2.72141
	646.854	7.8079	2.79426
	648.755	6.60879	2.57076
	650.655	5.31252	2.30489
	652.555	3.88901	1.97206
	654.456	2.73306	1.6532
	656.356	1.7398	1.31901
	658.256	1.06901	1.03393
	660.157	0.885771	0.941154
	662.057	1.04197	1.02077
	663.957	1.28123	1.13191
	665.857	1.30856	1.14392
	667.758	1.61784	1.27194
	669.658	2.50601	1.58304
	671.558	3.81053	1.95206
	673.459	5.11316	2.26123
	675.359	5.73102	2.39396
	677.259	6.64996	2.57875
	679.16	7.42723	2.72529
	681.06	8.64178	2.93969
	682.96	8.9775	2.99625
	684.861	9.23291	3.03857
	686.761	9.19576	3.03245
	688.661	9.29555	3.04886
	690.562	10.268	3.20438
	692.462	12.2497	3.49996
	694.362	16.3929	4.04881
	696.263	22.7263	4.76721
	698.163	31.8952	5.64759
	700.063	44.54	6.67383
	701.964	57.4025	7.57644
	703.864	72.8556	8.53555
	705.764	83.4421	9.13467
	707.665	87.8037	9.37037
	709.565	85.6493	9.25469
	711.465	76.6962	8.75763
	713.366	63.3466	7.95906
	715.266	49.2939	7.02096
	717.166	37.3546	6.11184
	719.067	26.6721	5.16451
	720.967	19.9513	4.46669
	722.867	14.0114	3.74318
	724.768	10.6835	3.26856
	726.668	7.66007	2.76768
	728.568	5.67173	2.38154
	730.469	4.46484	2.11302
	732.369	3.51525	1.8749
	734.269	3.06518	1.75077
	736.17	2.64836	1.62738
	738.07	2.12681	1.45836
	739.97	1.61421	1.27052
	741.871	1.34401	1.15932
	743.771	1.02921	1.0145
	745.671	0.428123	0.654311
	747.572	0.229689	0.479259
	749.472	0.385277	0.620706
	751.372	0.433531	0.65843
	753.273	0.399329	0.631925
	755.173	0.293052	0.541343
	757.073	0.39737	0.630373
	758.973	0.619742	0.787237
	760.874	0.928722	0.963702
	762.774	0.690043	0.830688
	764.674	0.368726	0.607228
	766.575	0.0266356	0.163204
	768.475	0.15992	0.3999
	770.375	0.0760024	0.275685
	772.276	0.0103834	0.101899
	774.176	0.160581	0.400725
	776.076	0.552048	0.742999
	777.977	0.598984	0.773941
	779.877	0.336006	0.57966
	781.777	-0.0812409	0.285028
	783.678	-0.0144034	0.120014
	785.578	0.111162	0.33341
	787.478	0.426795	0.653296
	789.379	0.0871315	0.29518
	791.279	0.216006	0.464764
	793.179	0.535254	0.73161
	795.08	0.909462	0.953657
	796.98	0.473807	0.688337
	798.88	0.334843	0.578656
	800.781	0.334767	0.57859
	802.681	0.463526	0.680827
	804.581	0.314445	0.560754
	806.482	0.180795	0.4252
	808.382	-0.101463	0.318533
	810.282	0.275181	0.524577
	812.183	0.534794	0.731296
	814.083	0.978976	0.989432
	815.983	0.482209	0.694413
	817.884	0.397168	0.630213
	819.784	0.258737	0.508662
	821.684	0.233342	0.483054
	823.585	0.182706	0.427441
	825.485	-0.0238201	0.154338
	827.385	0.0282615	0.168112
	829.286	0.508756	0.713271
	831.186	0.951234	0.975312
	833.086	1.11336	1.05516
	834.987	0.910983	0.954454
	836.887	0.406457	0.63754
	838.787	0.356491	0.597068
	840.688	0.0706965	0.265888
	842.588	0.404896	0.636314
	844.488	0.55186	0.742873
	846.389	0.763799	0.873956
	848.289	1.02981	1.0148
	850.189	0.836661	0.914692
	852.089	0.776759	0.881339
	853.99	0.710054	0.842647
	855.89	0.295011	0.543149
	857.79	0.0636664	0.252322
	859.691	-0.208167	0.456254
	861.591	-0.277058	0.526363
	863.491	-0.488771	0.699122
	865.392	-0.568335	0.75388
	867.292	-0.376878	0.613904
	869.192	-0.197294	0.444178
	871.093	-0.322471	0.567866
	872.993	-0.209704	0.457935
	874.893	-0.222363	0.471553
	876.794	0.219067	0.468046
	878.694	0.29282	0.541128
	880.594	0.0879426	0.296551
	882.495	0.169605	0.411831
	884.395	0.199245	0.446369
	886.295	0.348866	0.590649
	888.196	0.285653	0.534465
	890.096	0.218481	0.46742
	891.996	0.305008	0.552276
	893.897	0.42468	0.651675
	895.797	0.598625	0.773709
	897.697	0.986139	0.993045
	899.598	1.25637	1.12088
	901.498	1.12771	1.06194
	903.398	1.80472	1.3434
	905.299	2.9285	1.71129
	907.199	4.19448	2.04804
	909.099	5.66148	2.37939
	911	7.10691	2.66588
	912.9	9.49435	3.08129
	914.8	13.0745	3.61587
	916.701	18.3538	4.28413
	918.601	25.3192	5.03182
	920.501	33.8016	5.81391
	922.402	43.9151	6.62684
	924.302	55.9598	7.48063
	926.202	68.0591	8.2498
	928.103	81.1758	9.00976
	930.003	92.1553	9.59975
	931.903	103.036	10.1506
	933.804	111.962	10.5812
	935.704	120.997	10.9999
	937.604	128.442	11.3332
	939.505	134.801	11.6104
	941.405	141.196	11.8826
	943.305	147.41	12.1413
	945.206	154.821	12.4427
	947.106	165.46	12.8631
	949.006	179.633	13.4027
	950.906	198.838	14.101
	952.807	220.761	14.858
	954.707	248.644	15.7684
	956.607	274.474	16.5672
	958.508	294.162	17.1511
	960.408	304.452	17.4486
	962.308	306.287	17.5011
	964.209	300.079	17.3228
	966.109	286.308	16.9206
	968.009	267.791	16.3643
	969.91	245.876	15.6804
	971.81	225.624	15.0208
	973.71	205.234	14.326
	975.611	186.382	13.6522
	977.511	168.891	12.9958
	979.411	151.607	12.3129
	981.312	135.709	11.6494
	983.212	119.359	10.9251
	985.112	102.737	10.1359
	987.013	85.6107	9.2526
	988.913	70.3387	8.38682
	990.813	55.9305	7.47867
	992.714	44.5419	6.67397
	994.614	34.6091	5.88295
	996.514	27.3409	5.22885
	998.415	21.622	4.64995
	1000.31	17.0356	4.12742
	1002.22	13.1491	3.62617
	1004.12	9.96123	3.15614
	1006.02	7.63887	2.76385
	1007.92	5.79212	2.40668
	1009.82	4.23674	2.05834
	1011.72	3.20684	1.79076
	1013.62	2.23262	1.49419
	1015.52	1.62326	1.27407
	1017.42	0.774919	0.880295
	1019.32	0.231222	0.480855
	1021.22	-0.419871	0.647974
	1023.12	-0.562431	0.749954
	1025.02	-0.631993	0.79498
	1026.92	-0.6385	0.799062
	1028.82	-0.880464	0.938331
	1030.72	-0.895721	0.946425
	1032.62	-1.02898	1.01439
	1034.52	-0.88936	0.943059
	1036.42	-0.682667	0.826237
	1038.32	-0.33853	0.581833
	1040.22	0.097979	0.313016
	1042.12	0.0791467	0.28133
	1044.02	0.0446208	0.211236
	1045.92	0.67072	0.818975
	1047.82	1.49941	1.2245
	1049.72	2.4084	1.5519
	1051.62	3.08043	1.75512
	1053.52	4.15361	2.03804
	1055.42	5.31539	2.30551
	1057.32	6.72196	2.59267
	1059.23	8.21173	2.86561
	1061.13	9.80255	3.1309
	1063.03	11.2319	3.3514
	1064.93	12.8166	3.58002
	1066.83	14.0106	3.74308
	1068.73	14.7822	3.84476
	1070.63	15.0421	3.87841
	1072.53	15.0318	3.87709
	1074.43	15.1511	3.89244
	1076.33	15.4463	3.93018
	1078.23	15.4077	3.92526
	1080.13	15.2334	3.90299
	1082.03	15.124	3.88897
	1083.93	14.6236	3.82408
	1085.83	14.3037	3.78202
	1087.73	14.6519	3.82778
	1089.63	15.4295	3.92804
	1091.53	15.95	3.99375
	1093.43	15.8807	3.98507
	1095.33	16.152	4.01895
	1097.23	17.3257	4.16241
	1099.13	18.5351	4.30524
	1101.03	20.0226	4.47466
	1102.93	21.3407	4.6196
	1104.83	23.054	4.80146
	1106.73	24.8608	4.98606
	1108.63	26.6448	5.16186
	1110.53	28.098	5.30076
	1112.43	29.8362	5.46225
	1114.33	31.2775	5.59263
	1116.23	32.4872	5.69975
	1118.14	32.4223	5.69406
	1120.04	32.03	5.65951
	1121.94	31.4804	5.61074
	1123.84	30.3747	5.51132
	1125.74	28.7056	5.35776
	1127.64	27.0947	5.20526
	1129.54	25.3944	5.03928
	1131.44	23.8369	4.8823
	1133.34	22.3067	4.723
	1135.24	20.9818	4.58058
	1137.14	19.4168	4.40645
	1139.04	18.3576	4.28458
	1140.94	17.5877	4.19376
	1142.84	16.5037	4.06247
	1144.74	15.6493	3.95592
	1146.64	14.188	3.7667
	1148.54	12.9514	3.59881
	1150.44	11.4666	3.38624
	1152.34	9.72918	3.11916
	1154.24	8.06723	2.84029
	1156.14	6.29812	2.5096
	1158.04	4.90109	2.21384
	1159.94	3.67333	1.91659
	1161.84	2.79449	1.67167
	1163.74	1.9188	1.38521
	1165.64	1.2697	1.12681
	1167.54	0.972555	0.986182
	1169.44	0.632671	0.795406
	1171.34	0.173408	0.416422
	1173.24	-0.154978	0.393672
	1175.15	-0.627372	0.792068
	1177.05	-0.866956	0.931105
	1178.95	-1.02425	1.01205
	1180.85	-0.849325	0.921588
	1182.75	-0.803192	0.89621
	1184.65	-0.917012	0.957608
	1186.55	-0.441045	0.664112
	1188.45	0.0738476	0.271749
	1190.35	1.03937	1.01949
	1192.25	2.04588	1.43034
	1194.15	3.44734	1.8567
	1196.05	5.64265	2.37543
	1197.95	7.73721	2.78158
	1199.85	10.7915	3.28503
	1201.75	14.8959	3.85952
	1203.65	20.5178	4.52966
	1205.55	27.1876	5.21418
	1207.45	37.4119	6.11652
	1209.35	47.7108	6.9073
	1211.25	63.5707	7.97312
	1213.15	81.7968	9.04416
	1215.05	102.206	10.1097
	1216.95	129.995	11.4016
	1218.85	155.621	12.4748
	1220.75	181.544	13.4738
	1222.65	203.492	14.2651
	1224.55	211.599	14.5465
	1226.45	203.221	14.2556
	1228.35	186.041	13.6397
	1230.25	159.764	12.6398
	1232.15	130.784	11.4361
	1234.06	104.262	10.2109
	1235.96	81.7444	9.04126
	1237.86	66.0841	8.12921
	1239.76	53.373	7.30568
	1241.66	44.8724	6.69869
	1243.56	38.9994	6.24495
	1245.46	35.6219	5.9684
	1247.36	33.4746	5.78572
	1249.26	32.5503	5.70529
	1251.16	32.3199	5.68506
	1253.06	32.2549	5.67934
	1254.96	33.1285	5.75574
	1256.86	34.7303	5.89324
	1258.76	37.1382	6.09411
	1260.66	40.024	6.32645
	1262.56	43.4735	6.59344
	1264.46	47.3023	6.87767
	1266.36	51.8305	7.19934
	1268.26	57.6581	7.59329
	1270.16	63.6789	7.97991
	1272.06	69.5321	8.33859
	1273.96	74.2336	8.61589
	1275.86	77.111	8.78129
	1277.76	77.8893	8.82549
	1279.66	76.2038	8.72948
	1281.56	72.341	8.50535
	1283.46	66.4378	8.15094
	1285.36	59.9661	7.74378
	1287.26	53.2776	7.29915
	1289.16	48.029	6.9303
	1291.06	43.6292	6.60524
	1292.97	40.8378	6.39045
	1294.87	38.1841	6.17933
	1296.77	36.4717	6.03918
	1298.67	35.0399	5.91945
	1300.57	34.4342	5.86807
	1302.47	34.2709	5.85413
	1304.37	34.6803	5.889
	1306.27	34.8804	5.90596
	1308.17	35.2524	5.93737
	1310.07	35.6775	5.97307
	1311.97	35.6466	5.97048
	1313.87	34.7162	5.89205
	1315.77	34.1535	5.8441
	1317.67	33.8174	5.81528
	1319.57	33.6941	5.80466
	1321.47	33.1265	5.75557
	1323.37	32.5219	5.70279
	1325.27	31.5335	5.61547
	1327.17	30.7666	5.54677
	1329.07	30.2149	5.49681
	1330.97	29.726	5.45215
	1332.87	29.1885	5.40264
	1334.77	28.3975	5.32893
	1336.67	27.5478	5.2486
	1338.57	26.7378	5.17087
	1340.47	25.8634	5.08561
	1342.37	25.1128	5.01127
	1344.27	24.5351	4.95329
	1346.17	24.2474	4.92416
	1348.07	23.9103	4.88982
	1349.98	23.8676	4.88545
	1351.88	23.9799	4.89693
	1353.78	24.0386	4.90291
	1355.68	24.0749	4.90661
	1357.58	23.7392	4.87229
	1359.48	22.8988	4.78527
	1361.38	21.8856	4.6782
	1363.28	20.4716	4.52455
	1365.18	18.6504	4.31861
	1367.08	15.852	3.98146
	1368.98	12.7714	3.57371
	1370.88	9.59727	3.09795
	1372.78	7.42932	2.72568
	1374.68	5.65397	2.37781
	1376.58	4.00975	2.00243
	1378.48	2.26832	1.50609
	1380.38	0.605072	0.777864
	1382.28	-0.30899	0.555869
	1384.18	-0.970602	0.985191
	1386.08	-0.849471	0.921667
	1387.98	-0.663365	0.814472
	1389.88	-0.221191	0.47031
	1391.78	-0.414981	0.64419
	1393.68	-0.595854	0.771916
	1395.58	-0.648495	0.805292
	1397.48	-0.580766	0.76208
	1399.38	-0.591873	0.769333
	1401.28	-0.149492	0.386642
	1403.18	0.679995	0.824618
	1405.08	1.57148	1.25359
	1406.98	2.32037	1.52328
	1408.89	2.86511	1.69266
	1410.79	3.65656	1.91221
	1412.69	4.50433	2.12234
	1414.59	5.53904	2.35352
	1416.49	6.53726	2.55681
	1418.39	8.00643	2.82956
	1420.29	8.63329	2.93825
	1422.19	9.34121	3.05634
	1424.09	10.1833	3.19113
	1425.99	11.2072	3.34772
	1427.89	12.0975	3.47814
	1429.79	13.1697	3.62901
	1431.69	13.9519	3.73523
	1433.59	14.4401	3.80001
	1435.49	14.1493	3.76156
	1437.39	12.7607	3.57221
	1439.29	11.4679	3.38643
	1441.19	9.45853	3.07547
	1443.09	7.56401	2.75027
	1444.99	5.31175	2.30472
	1446.89	3.36691	1.83491
	1448.79	1.58294	1.25815
	1450.69	0.574887	0.758213
	1452.59	0.184016	0.428971
	1454.49	0.0416643	0.204118
	1456.39	-0.0716501	0.267675
	1458.29	-0.13875	0.372491
	1460.19	-0.343436	0.586034
	1462.09	-0.47767	0.691137
	1463.99	-0.367018	0.60582
	1465.89	-0.506411	0.711626
	1467.8	-0.533073	0.730119
	1469.7	-0.527475	0.726275
	1471.6	-0.216788	0.465605
	1473.5	-0.323738	0.56898
	1475.4	-0.279215	0.528408
	1477.3	-0.246797	0.496787
	1479.2	-0.349694	0.591349
	1481.1	-0.512541	0.71592
	1483	-0.320883	0.566465
	1484.9	-0.204658	0.452391
	1486.8	-0.101039	0.317867
	1488.7	0.129211	0.35946
	1490.6	0.425565	0.652353
	1492.5	0.569366	0.754563
	1494.4	0.636728	0.797952
	1496.3	0.5112	0.714983
	1498.2	0.351285	0.592693
	1500.1	0.0300702	0.173408
	1502	0.0804264	0.283595
	1503.9	0.257412	0.507358
	1505.8	0.397574	0.630535
	1507.7	0.411093	0.641165
	1509.6	0.553372	0.74389
	1511.5	0.779074	0.882652
	1513.4	0.31077	0.557468
	1515.3	-0.00944784	0.0972
	1517.2	-0.0901346	0.300224
	1519.1	0.308164	0.555125
	1521	0.67342	0.820622
	1522.9	1.08075	1.03959
	1524.81	1.13551	1.0656
	1526.71	0.928117	0.963388
	1528.61	0.758079	0.870677
	1530.51	0.400928	0.633189
	1532.41	0.367318	0.606067
	1534.31	0.44623	0.668005
	1536.21	0.538586	0.733884
	1538.11	0.411023	0.641111
	1540.01	0.41413	0.64353
	1541.91	0.357353	0.59779
	1543.81	0.391299	0.625539
	1545.71	0.518746	0.72024
	1547.61	0.487439	0.698169
	1549.51	0.416224	0.645155
	1551.41	0.241944	0.491878
	1553.31	0.150604	0.388077
	1555.21	0.0843907	0.290501
	1557.11	0.273531	0.523002
	1559.01	0.602181	0.776003
	1560.91	0.528358	0.726883
	1562.81	0.400201	0.632614
	1564.71	0.215755	0.464494
	1566.61	0.38845	0.623257
	1568.51	0.665446	0.815749
	1570.41	0.637551	0.798468
	1572.31	1.15977	1.07692
	1574.21	1.17203	1.0826
	1576.11	1.31047	1.14476
	1578.01	1.29001	1.13579
	1579.91	1.78416	1.33573
	1581.81	2.0958	1.44769
	1583.72	2.17499	1.47478
	1585.62	2.23366	1.49455
	1587.52	2.83475	1.68367
	1589.42	3.69917	1.92332
	1591.32	4.25685	2.06321
	1593.22	4.55095	2.1333
	1595.12	4.67914	2.16313
	1597.02	4.79724	2.19026
	1598.92	5.38153	2.31981
	1600.82	6.23146	2.49629
	1602.72	7.48998	2.73678
	1604.62	8.64665	2.94052
	1606.52	9.41502	3.06839
	1608.42	9.85721	3.13962
	1610.32	10.4957	3.2397
	1612.22	11.1264	3.33563
	1614.12	11.6715	3.41636
	1616.02	12.2818	3.50454
	1617.92	13.0265	3.60923
	1619.82	13.8509	3.72167
	1621.72	14.8272	3.85061
	1623.62	15.4967	3.93659
	1625.52	16.3037	4.03778
	1627.42	16.5475	4.06786
	1629.32	17.1924	4.14637
	1631.22	17.74	4.21188
	1633.12	18.4045	4.29004
	1635.02	18.5745	4.30982
	1636.92	18.9702	4.35548
	1638.82	20.0236	4.47478
	1640.73	21.1554	4.5995
	1642.63	22.3104	4.72339
	1644.53	23.7849	4.87698
	1646.43	25.7255	5.07203
	1648.33	28.0927	5.30025
	1650.23	30.661	5.53724
	1652.13	33.2635	5.76745
	1654.03	35.9659	5.99716
