Generated file C:/Users/didvk/Downloads/Dioptas_Win64_0.5.0/1_mask&dat&fxye_1position/13_ReMoB2_605psi_noRuby_S_P1_C1_D1w_085.fxye using DIOPTAS
# == pyFAI calibration ==
# Distance Sample to Detector: 0.21643023575112377 m
# PONI: 8.848e-02, 8.638e-02 m
# Rotations: 0.008179 -0.001145 -0.000000 rad
# 
# == Fit2d calibration ==
# Distance Sample-beamCenter: 216.438 mm
# Center: x=491.896, y=512.970 pix
# Tilt: 0.473 deg  TiltPlanRot: -172.032 deg
# 
# Detector Pilatus CdTe 1M	 PixelSize= 1.720e-04, 1.720e-04 m
#    Detector has a mask: True 
#    Detector has a dark current: False 
#    detector has a flat field: False 
# 
# Wavelength: 4.133e-11 m
# Mask applied: None
# Dark current applied: None
# Flat field applied: None
# Polarization factor: None
# Normalization factor: None
BANK	1	1006	1006 CONS	293.393	1.90033 0.4133 0.0 FXYE
	293.393	0.444067	0.666384
	295.294	0.510948	0.714806
	297.194	0.65007	0.806269
	299.094	0.582797	0.763412
	300.995	0.420141	0.648183
	302.895	0.340525	0.583545
	304.795	-0.0788419	0.280788
	306.696	0.216211	0.464985
	308.596	0.0556609	0.235926
	310.496	0.0281522	0.167786
	312.397	0.237125	0.486954
	314.297	0.731136	0.855065
	316.197	0.471743	0.686835
	318.098	0.204607	0.452335
	319.998	-0.0730968	0.270364
	321.898	-0.114027	0.337679
	323.799	0.138074	0.371583
	325.699	0.655985	0.809929
	327.599	0.872116	0.933872
	329.5	1.36441	1.16808
	331.4	0.956036	0.977771
	333.3	1.21477	1.10217
	335.201	1.40696	1.18615
	337.101	2.09558	1.44761
	339.001	2.18442	1.47798
	340.902	2.41721	1.55474
	342.802	2.06233	1.43608
	344.702	2.49847	1.58066
	346.603	3.09717	1.75988
	348.503	4.81374	2.19402
	350.403	6.72521	2.5933
	352.304	8.63059	2.93779
	354.204	9.81773	3.13333
	356.104	9.63474	3.10399
	358.005	8.5354	2.92154
	359.905	7.12409	2.6691
	361.805	5.49865	2.34492
	363.706	4.07766	2.01932
	365.606	2.86551	1.69278
	367.506	1.83445	1.35442
	369.407	1.3532	1.16327
	371.307	0.924126	0.961314
	373.207	0.704727	0.83948
	375.108	0.460654	0.678715
	377.008	0.906333	0.952015
	378.908	1.6206	1.27303
	380.808	1.84376	1.35785
	382.709	1.46158	1.20896
	384.609	1.19102	1.09134
	386.509	0.871147	0.933353
	388.41	0.61142	0.781934
	390.31	0.500263	0.707293
	392.21	0.97802	0.988949
	394.111	1.34793	1.161
	396.011	1.74375	1.32051
	397.911	1.65441	1.28624
	399.812	1.16489	1.0793
	401.712	0.849594	0.921734
	403.612	0.807473	0.898595
	405.513	1.22293	1.10586
	407.413	1.13529	1.0655
	409.313	0.564072	0.751047
	411.214	0.29515	0.543277
	413.114	-0.26978	0.519404
	415.014	0.0202144	0.142177
	416.915	0.152446	0.390443
	418.815	0.344415	0.586869
	420.715	0.258888	0.50881
	422.616	0.481725	0.694064
	424.516	1.05035	1.02487
	426.416	1.12137	1.05895
	428.317	0.758553	0.870949
	430.217	-0.00516996	0.0719024
	432.117	0.139328	0.373267
	434.018	0.243668	0.493627
	435.918	0.951655	0.975528
	437.818	0.652751	0.80793
	439.719	0.445791	0.667676
	441.619	0.380767	0.617064
	443.519	0.572705	0.756773
	445.42	0.813153	0.90175
	447.32	0.76633	0.875403
	449.22	1.1684	1.08092
	451.121	1.56637	1.25155
	453.021	1.38593	1.17725
	454.921	0.983023	0.991475
	456.822	0.412062	0.641921
	458.722	0.231884	0.481544
	460.622	0.257067	0.507018
	462.523	0.413395	0.642958
	464.423	0.445321	0.667324
	466.323	0.615693	0.784661
	468.224	0.429879	0.655651
	470.124	0.374558	0.612012
	472.024	0.432414	0.657582
	473.924	0.655203	0.809446
	475.825	0.409983	0.640299
	477.725	0.110778	0.332833
	479.625	-0.141162	0.375715
	481.526	-0.200832	0.448143
	483.426	-0.0330772	0.181871
	485.326	0.119496	0.345682
	487.227	0.391848	0.625977
	489.127	0.776389	0.881129
	491.027	0.755701	0.869311
	492.928	1.14845	1.07166
	494.828	1.32144	1.14954
	496.728	1.13459	1.06517
	498.629	0.906742	0.95223
	500.529	0.362628	0.602186
	502.429	-0.0995359	0.315493
	504.33	0.187077	0.432524
	506.23	0.422941	0.650339
	508.13	0.699786	0.836532
	510.031	0.912236	0.95511
	511.931	0.699267	0.836222
	513.831	0.123235	0.351049
	515.732	0.254352	0.504334
	517.632	0.183694	0.428595
	519.532	0.619833	0.787294
	521.433	0.795617	0.891974
	523.333	1.40493	1.1853
	525.233	1.67134	1.2928
	527.134	1.23269	1.11027
	529.034	0.981454	0.990684
	530.934	0.613377	0.783184
	532.835	-0.0303817	0.174304
	534.735	-0.252762	0.502755
	536.635	0.0101875	0.100933
	538.536	0.441472	0.664434
	540.436	0.440277	0.663534
	542.336	0.682158	0.825929
	544.237	0.895768	0.94645
	546.137	1.16545	1.07956
	548.037	0.853312	0.923749
	549.938	0.636797	0.797996
	551.838	0.339376	0.58256
	553.738	0.688217	0.829588
	555.639	1.12337	1.05989
	557.539	1.25146	1.11869
	559.439	0.948455	0.973887
	561.34	0.685838	0.828154
	563.24	-0.000924963	0.0304132
	565.14	0.0886756	0.297785
	567.041	0.633552	0.79596
	568.941	1.09756	1.04764
	570.841	1.32027	1.14903
	572.741	1.29973	1.14006
	574.642	2.00723	1.41677
	576.542	2.68819	1.63957
	578.442	2.99807	1.73149
	580.343	3.24195	1.80054
	582.243	4.32662	2.08005
	584.143	5.66458	2.38004
	586.044	6.08728	2.46724
	587.944	6.55453	2.56018
	589.844	6.89644	2.62611
	591.745	6.53054	2.55549
	593.645	5.37923	2.31932
	595.545	4.14014	2.03473
	597.446	3.29075	1.81404
	599.346	2.7295	1.65212
	601.246	2.53863	1.59331
	603.147	1.90303	1.3795
	605.047	1.80095	1.34199
	606.947	1.42251	1.19269
	608.848	1.33951	1.15737
	610.748	0.717409	0.847
	612.648	0.478883	0.692014
	614.549	0.504518	0.710294
	616.449	0.623062	0.789343
	618.349	0.369531	0.607891
	620.25	-0.20553	0.453354
	622.15	-0.330958	0.575289
	624.05	-0.225222	0.474576
	625.951	-0.0649664	0.254885
	627.851	-0.100884	0.317623
	629.751	0.135657	0.368317
	631.652	0.436224	0.660473
	633.552	0.580353	0.761809
	635.452	0.828575	0.910261
	637.353	0.690251	0.830814
	639.253	0.713217	0.844522
	641.153	0.841309	0.917229
	643.054	1.52311	1.23414
	644.954	2.18398	1.47783
	646.854	3.06496	1.7507
	648.755	4.58822	2.14201
	650.655	6.59975	2.569
	652.555	8.06295	2.83953
	654.456	8.61713	2.9355
	656.356	7.993	2.82719
	658.256	6.34578	2.51908
	660.157	3.69787	1.92299
	662.057	2.1066	1.45141
	663.957	1.06594	1.03244
	665.857	0.946665	0.972967
	667.758	0.885545	0.941034
	669.658	1.03609	1.01788
	671.558	1.4418	1.20075
	673.459	1.98482	1.40884
	675.359	2.98426	1.7275
	677.259	4.27983	2.06877
	679.16	5.88212	2.42531
	681.06	7.99297	2.82718
	682.96	10.7256	3.27499
	684.861	13.3025	3.64726
	686.761	15.0965	3.88542
	688.661	15.343	3.91702
	690.562	14.8517	3.8538
	692.462	13.6299	3.69187
	694.362	12.9013	3.59183
	696.263	12.4796	3.53264
	698.163	12.9492	3.5985
	700.063	14.7778	3.84419
	701.964	18.0644	4.25022
	703.864	23.6239	4.86044
	705.764	29.976	5.47504
	707.665	37.7665	6.14544
	709.565	44.5685	6.67597
	711.465	48.7928	6.98519
	713.366	50.6179	7.11462
	715.266	48.3263	6.95171
	717.166	42.823	6.54393
	719.067	35.3233	5.94334
	720.967	28.4388	5.3328
	722.867	21.867	4.67621
	724.768	17.0204	4.12557
	726.668	13.2241	3.63649
	728.568	10.566	3.25055
	730.469	8.63444	2.93844
	732.369	6.98792	2.64347
	734.269	5.62052	2.37076
	736.17	4.91912	2.21791
	738.07	4.01975	2.00493
	739.97	3.49248	1.86882
	741.871	3.44563	1.85624
	743.771	3.22161	1.79488
	745.671	2.36522	1.53793
	747.572	1.09827	1.04798
	749.472	0.62843	0.792736
	751.372	0.94123	0.97017
	753.273	1.25169	1.11879
	755.173	1.23512	1.11136
	757.073	0.833797	0.913125
	758.973	0.850892	0.922438
	760.874	0.799938	0.894393
	762.774	0.753546	0.86807
	764.674	0.424503	0.651539
	766.575	0.472347	0.687275
	768.475	0.686251	0.828403
	770.375	0.502944	0.709186
	772.276	0.0507304	0.225234
	774.176	-0.186021	0.431301
	776.076	0.0626919	0.250383
	777.977	0.333992	0.577921
	779.877	0.680799	0.825105
	781.777	0.734766	0.857185
	783.678	0.777144	0.881558
	785.578	0.582745	0.763377
	787.478	0.821578	0.90641
	789.379	0.537353	0.733044
	791.279	0.756376	0.869699
	793.179	1.04666	1.02307
	795.08	1.08216	1.04027
	796.98	0.836275	0.914481
	798.88	0.650642	0.806624
	800.781	0.724539	0.851198
	802.681	0.921982	0.960199
	804.581	1.03323	1.01648
	806.482	0.7136	0.844748
	808.382	0.321537	0.567043
	810.282	0.116401	0.341176
	812.183	-0.031666	0.177949
	814.083	0.25039	0.50039
	815.983	0.511472	0.715173
	817.884	0.635847	0.7974
	819.784	0.339131	0.58235
	821.684	-0.0774234	0.278251
	823.585	-0.29741	0.545353
	825.485	0.233129	0.482834
	827.385	0.580772	0.762084
	829.286	0.742244	0.861536
	831.186	0.372325	0.610184
	833.086	0.340471	0.583499
	834.987	0.538621	0.733908
	836.887	0.504822	0.710508
	838.787	0.343491	0.586081
	840.688	0.406124	0.637279
	842.588	0.280132	0.529275
	844.488	0.0935898	0.305925
	846.389	-0.121187	0.348119
	848.289	-0.135234	0.367742
	850.189	0.0083414	0.0913313
	852.089	-0.0450431	0.212234
	853.99	0.306225	0.553376
	855.89	0.919763	0.959043
	857.79	0.99242	0.996203
	859.691	0.856788	0.925628
	861.591	0.620656	0.787817
	863.491	0.300061	0.547778
	865.392	-0.00357507	0.0597919
	867.292	-0.206572	0.454502
	869.192	-0.0751548	0.274144
	871.093	-0.0383342	0.195791
	872.993	0.237347	0.487182
	874.893	0.206015	0.453889
	876.794	0.443631	0.666056
	878.694	0.178797	0.422844
	880.594	-0.0535196	0.231343
	882.495	0.0703715	0.265276
	884.395	0.117876	0.34333
	886.295	0.192044	0.438228
	888.196	0.0735874	0.27127
	890.096	0.168616	0.410629
	891.996	0.308765	0.555666
	893.897	0.128249	0.358119
	895.797	-0.186864	0.432278
	897.697	-0.215282	0.463985
	899.598	0.0584629	0.241791
	901.498	0.548816	0.740821
	903.398	1.39644	1.18171
	905.299	1.8213	1.34956
	907.199	2.20585	1.48521
	909.099	2.96284	1.72129
	911	4.1337	2.03315
	912.9	5.62143	2.37095
	914.8	7.3106	2.70381
	916.701	9.90402	3.14706
	918.601	13.4209	3.66346
	920.501	18.181	4.26392
	922.402	24.2667	4.92612
	924.302	33.1672	5.7591
	926.202	45.0756	6.71383
	928.103	61.9995	7.87398
	930.003	82.7848	9.09861
	931.903	108.921	10.4365
	933.804	136.874	11.6993
	935.704	165.636	12.87
	937.604	191.663	13.8442
	939.505	212.858	14.5897
	941.405	229.268	15.1416
	943.305	238.274	15.4361
	945.206	241.098	15.5273
	947.106	238.615	15.4472
	949.006	231.275	15.2077
	950.906	220.695	14.8558
	952.807	208.127	14.4266
	954.707	195.265	13.9737
	956.607	184.722	13.5912
	958.508	175.249	13.2381
	960.408	168.799	12.9923
	962.308	164.171	12.8129
	964.209	162.454	12.7457
	966.109	162.492	12.7472
	968.009	163.147	12.7729
	969.91	164.587	12.8291
	971.81	164.761	12.8359
	973.71	165.29	12.8565
	975.611	161.139	12.694
	977.511	156.448	12.5079
	979.411	148.562	12.1886
	981.312	138.526	11.7697
	983.212	128.529	11.3371
	985.112	116.666	10.8012
	987.013	106.375	10.3138
	988.913	96.8489	9.84118
	990.813	86.1534	9.28188
	992.714	77.0196	8.77608
	994.614	67.9921	8.24573
	996.514	60.0875	7.75161
	998.415	52.8052	7.26672
	1000.31	46.0412	6.78537
	1002.22	40.0272	6.32671
	1004.12	34.6222	5.88406
	1006.02	29.3681	5.41923
	1007.92	24.7783	4.97778
	1009.82	20.3519	4.51131
	1011.72	16.9701	4.11948
	1013.62	13.6447	3.69387
	1015.52	10.7883	3.28456
	1017.42	8.08825	2.84399
	1019.32	5.74762	2.39742
	1021.22	4.16852	2.04169
	1023.12	2.46291	1.56937
	1025.02	1.39229	1.17995
	1026.92	0.066251	0.257393
	1028.82	-0.878895	0.937494
	1030.72	-1.0942	1.04604
	1032.62	-1.09102	1.04452
	1034.52	-0.573681	0.757417
	1036.42	-0.0432739	0.208024
	1038.32	0.883487	0.93994
	1040.22	2.06837	1.43818
	1042.12	3.79115	1.94709
	1044.02	6.08724	2.46723
	1045.92	8.42546	2.90266
	1047.82	10.5079	3.24159
	1049.72	12.5203	3.5384
	1051.62	13.748	3.70783
	1053.52	14.0541	3.74887
	1055.42	13.5553	3.68176
	1057.32	12.0942	3.47767
	1059.23	10.4523	3.23301
	1061.13	8.31229	2.88311
	1063.03	6.68854	2.58622
	1064.93	5.28611	2.29915
	1066.83	4.65573	2.15771
	1068.73	4.19084	2.04715
	1070.63	4.52499	2.1272
	1072.53	4.88832	2.21095
	1074.43	5.6514	2.37727
	1076.33	6.37612	2.5251
	1078.23	7.69714	2.77437
	1080.13	9.31619	3.05224
	1082.03	10.6715	3.26672
	1083.93	11.7144	3.42263
	1085.83	12.5531	3.54303
	1087.73	13.8399	3.72021
	1089.63	14.9093	3.86126
	1091.53	15.6378	3.95446
	1093.43	14.9332	3.86435
	1095.33	13.9848	3.73962
	1097.23	12.8515	3.5849
	1099.13	12.3574	3.51531
	1101.03	10.8204	3.28943
	1102.93	9.48376	3.07957
	1104.83	8.28816	2.87892
	1106.73	7.50549	2.73962
	1108.63	6.97215	2.64048
	1110.53	6.47508	2.54462
	1112.43	6.61445	2.57186
	1114.33	7.17615	2.67883
	1116.23	7.30335	2.70247
	1118.14	6.7902	2.6058
	1120.04	6.51585	2.55262
	1121.94	6.80604	2.60884
	1123.84	7.11649	2.66768
	1125.74	7.52287	2.74279
	1127.64	7.66109	2.76787
	1129.54	7.9502	2.81961
	1131.44	7.89327	2.8095
	1133.34	7.54675	2.74713
	1135.24	7.37478	2.71565
	1137.14	6.78877	2.60553
	1139.04	6.15323	2.48057
	1140.94	5.39512	2.32274
	1142.84	4.89997	2.21359
	1144.74	4.70651	2.16945
	1146.64	4.2203	2.05434
	1148.54	3.98978	1.99744
	1150.44	3.67125	1.91605
	1152.34	3.42598	1.85094
	1154.24	3.39359	1.84217
	1156.14	3.49151	1.86856
	1158.04	3.63377	1.90625
	1159.94	3.17901	1.78298
	1161.84	2.80907	1.67603
	1163.74	2.33717	1.52878
	1165.64	1.84495	1.35829
	1167.54	1.54473	1.24287
	1169.44	1.17102	1.08214
	1171.34	0.636748	0.797965
	1173.24	-0.286368	0.535134
	1175.15	-0.472753	0.68757
	1177.05	-0.382624	0.618566
	1178.95	-0.64905	0.805636
	1180.85	-1.02094	1.01042
	1182.75	-0.862711	0.928822
	1184.65	-0.452841	0.672935
	1186.55	0.154373	0.392903
	1188.45	0.831789	0.912025
	1190.35	1.76978	1.33033
	1192.25	2.56702	1.60219
	1194.15	3.12163	1.76681
	1196.05	4.00458	2.00114
	1197.95	5.05205	2.24768
	1199.85	6.67639	2.58387
	1201.75	8.26769	2.87536
	1203.65	10.1826	3.19102
	1205.55	12.7925	3.57666
	1207.45	16.669	4.08277
	1209.35	21.2738	4.61235
	1211.25	27.8019	5.27275
	1213.15	36.0168	6.0014
	1215.05	46.9649	6.8531
	1216.95	60.4185	7.77293
	1218.85	76.8386	8.76577
	1220.75	97.3961	9.86895
	1222.65	123.039	11.0923
	1224.55	153.174	12.3764
	1226.45	190.313	13.7954
	1228.35	230.995	15.1985
	1230.25	276.198	16.6192
	1232.15	313.694	17.7114
	1234.06	342.179	18.4981
	1235.96	349.891	18.7054
	1237.86	339.94	18.4375
	1239.76	312.603	17.6806
	1241.66	277.183	16.6488
	1243.56	238.229	15.4347
	1245.46	198.663	14.0948
	1247.36	164.318	12.8187
	1249.26	134.02	11.5767
	1251.16	109.334	10.4563
	1253.06	90.2111	9.49795
	1254.96	75.5347	8.69107
	1256.86	64.3658	8.02283
	1258.76	56.3787	7.50857
	1260.66	50.2656	7.08982
	1262.56	46.0434	6.78553
	1264.46	42.5905	6.52614
	1266.36	39.9995	6.32452
	1268.26	37.8526	6.15244
	1270.16	36.6709	6.05565
	1272.06	35.6699	5.97243
	1273.96	34.914	5.90881
	1275.86	34.6561	5.88694
	1277.76	34.9273	5.90993
	1279.66	35.4433	5.95343
	1281.56	35.5533	5.96266
	1283.46	35.4308	5.95238
	1285.36	35.3266	5.94362
	1287.26	34.8767	5.90565
	1289.16	34.331	5.85926
	1291.06	33.2418	5.76557
	1292.97	31.6083	5.62212
	1294.87	28.8808	5.37409
	1296.77	26.019	5.10089
	1298.67	23.7635	4.87478
	1300.57	21.8834	4.67797
	1302.47	20.1537	4.48928
	1304.37	18.4288	4.29287
	1306.27	16.5114	4.06343
	1308.17	14.9608	3.86792
	1310.07	13.8605	3.72296
	1311.97	13.3437	3.6529
	1313.87	12.5938	3.54878
	1315.77	11.9003	3.44968
	1317.67	10.9931	3.31558
	1319.57	10.3684	3.21999
	1321.47	9.91411	3.14867
	1323.37	9.18018	3.02988
	1325.27	8.75606	2.95906
	1327.17	8.4837	2.91268
	1329.07	9.0624	3.01038
	1330.97	9.27175	3.04495
	1332.87	9.33696	3.05564
	1334.77	8.9981	2.99968
	1336.67	8.66747	2.94406
	1338.57	8.5146	2.91798
	1340.47	8.32911	2.88602
	1342.37	8.37659	2.89423
	1344.27	8.41089	2.90015
	1346.17	8.67748	2.94576
	1348.07	8.58711	2.93038
	1349.98	8.53163	2.92089
	1351.88	8.03766	2.83508
	1353.78	7.36751	2.71432
	1355.68	7.18875	2.68118
	1357.58	6.85518	2.61824
	1359.48	6.7262	2.59349
	1361.38	6.20553	2.49109
	1363.28	5.81695	2.41183
	1365.18	5.37517	2.31844
	1367.08	5.01165	2.23867
	1368.98	5.17089	2.27396
	1370.88	4.5225	2.12662
	1372.78	3.91841	1.9795
	1374.68	3.00473	1.73342
	1376.58	2.44743	1.56443
	1378.48	1.80913	1.34504
	1380.38	0.999098	0.999549
	1382.28	0.402189	0.634184
	1384.18	-0.253347	0.503336
	1386.08	-0.14731	0.38381
	1387.98	-0.418875	0.647205
	1389.88	-0.165694	0.407055
	1391.78	-0.319523	0.565264
	1393.68	-0.380934	0.617199
	1395.58	-0.139162	0.373045
	1397.48	0.811747	0.90097
	1399.38	2.05621	1.43395
	1401.28	2.68589	1.63887
	1403.18	3.26441	1.80677
	1405.08	4.14837	2.03675
	1406.98	4.65079	2.15657
	1408.89	5.14904	2.26915
	1410.79	5.39411	2.32252
	1412.69	5.89012	2.42696
	1414.59	6.26331	2.50266
	1416.49	6.35355	2.52063
	1418.39	6.17047	2.48404
	1420.29	6.12445	2.47476
	1422.19	6.0372	2.45707
	1424.09	6.44384	2.53847
	1425.99	6.7767	2.60321
	1427.89	7.24055	2.69083
	1429.79	8.10174	2.84635
	1431.69	9.12074	3.02006
	1433.59	9.71152	3.11633
	1435.49	9.7815	3.12754
	1437.39	9.61313	3.10051
	1439.29	9.45595	3.07505
	1441.19	9.22605	3.03744
	1443.09	8.82999	2.97153
	1444.99	7.68855	2.77282
	1446.89	6.17732	2.48542
	1448.79	4.71039	2.17034
	1450.69	3.49855	1.87044
	1452.59	2.38343	1.54384
	1454.49	1.50736	1.22775
	1456.39	0.964826	0.982256
	1458.29	0.587803	0.766683
	1460.19	0.139453	0.373434
	1462.09	-0.2116	0.46
	1463.99	-0.139297	0.373225
	1465.89	-0.272907	0.522405
	1467.8	-0.750231	0.866159
	1469.7	-0.721147	0.849203
	1471.6	-0.410985	0.641081
	1473.5	-0.316213	0.562328
	1475.4	-0.359539	0.599616
	1477.3	-0.477588	0.691077
	1479.2	-0.474796	0.689054
	1481.1	-0.10711	0.327276
	1483	0.203218	0.450797
	1484.9	0.0571136	0.238985
	1486.8	-0.0666165	0.258102
	1488.7	-0.136554	0.369532
	1490.6	0.227196	0.47665
	1492.5	0.278868	0.528079
	1494.4	0.327197	0.572012
	1496.3	0.1563	0.395348
	1498.2	0.0556237	0.235847
	1500.1	-0.196606	0.443403
	1502	-0.327136	0.571958
	1503.9	-0.0380337	0.195022
	1505.8	0.160571	0.400714
	1507.7	0.347525	0.589512
	1509.6	0.334441	0.578309
	1511.5	0.487359	0.698111
	1513.4	0.635429	0.797138
	1515.3	0.627767	0.792317
	1517.2	0.701675	0.837661
	1519.1	0.775094	0.880394
	1521	0.751298	0.866774
	1522.9	0.798088	0.893358
	1524.81	1.09774	1.04773
	1526.71	1.14009	1.06775
	1528.61	1.31927	1.1486
	1530.51	1.09204	1.04501
	1532.41	1.18074	1.08662
	1534.31	1.03871	1.01917
	1536.21	1.22755	1.10795
	1538.11	0.850453	0.9222
	1540.01	0.987149	0.993554
	1541.91	0.946827	0.97305
	1543.81	0.902919	0.95022
	1545.71	0.589338	0.767683
	1547.61	0.687751	0.829308
	1549.51	1.02089	1.01039
	1551.41	1.42056	1.19187
	1553.31	1.38332	1.17614
	1555.21	0.681514	0.825539
	1557.11	0.359874	0.599895
	1559.01	0.141539	0.376216
	1560.91	0.364959	0.604119
	1562.81	0.0847287	0.291082
	1564.71	0.290408	0.538895
	1566.61	-0.0386324	0.196551
	1568.51	-0.0443264	0.210538
	1570.41	-0.321683	0.567171
	1572.31	-0.0436149	0.208842
	1574.21	-0.0066571	0.0815911
	1576.11	0.0963032	0.310328
	1578.01	-0.12709	0.356496
	1579.91	0.0564908	0.237678
	1581.81	0.517347	0.719268
	1583.72	0.731065	0.855024
	1585.62	0.68959	0.830416
	1587.52	0.541864	0.736114
	1589.42	0.991948	0.995966
	1591.32	1.50276	1.22587
	1593.22	1.64368	1.28206
	1595.12	1.79713	1.34057
	1597.02	2.20699	1.48559
	1598.92	3.02973	1.74061
	1600.82	3.69709	1.92278
	1602.72	4.23491	2.05789
	1604.62	4.44252	2.10773
	1606.52	4.92851	2.22003
	1608.42	5.6941	2.38623
	1610.32	6.77069	2.60206
	1612.22	8.29454	2.88002
	1614.12	9.87231	3.14202
	1616.02	11.208	3.34784
	1617.92	12.3673	3.51672
	1619.82	13.7278	3.70511
	1621.72	15.6694	3.95846
	1623.62	17.7956	4.21848
	1625.52	19.5592	4.42258
	1627.42	21.5671	4.64403
	1629.32	23.1017	4.80643
	1631.22	24.7245	4.97237
	1633.12	26.5473	5.15241
	1635.02	28.071	5.2982
	1636.92	29.5223	5.43344
	1638.82	31.0382	5.5712
	1640.73	32.1409	5.6693
	1642.63	34.0768	5.83753
	1644.53	35.4027	5.95001
	1646.43	36.377	6.03133
	1648.33	37.6435	6.13543
	1650.23	38.0029	6.16465
	1652.13	38.0966	6.17225
	1654.03	37.3335	6.11012
	1655.93	36.5934	6.04925
