Generated file C:/Users/didvk/Downloads/Dioptas_Win64_0.5.0/1_mask&dat&fxye_1position/20_ReMoB2_815psi_noRuby_S_P1_C1_D1w_127.fxye using DIOPTAS
# == pyFAI calibration ==
# Distance Sample to Detector: 0.21643023575112377 m
# PONI: 8.848e-02, 8.638e-02 m
# Rotations: 0.008179 -0.001145 -0.000000 rad
# 
# == Fit2d calibration ==
# Distance Sample-beamCenter: 216.438 mm
# Center: x=491.896, y=512.970 pix
# Tilt: 0.473 deg  TiltPlanRot: -172.032 deg
# 
# Detector Pilatus CdTe 1M	 PixelSize= 1.720e-04, 1.720e-04 m
#    Detector has a mask: True 
#    Detector has a dark current: False 
#    detector has a flat field: False 
# 
# Wavelength: 4.133e-11 m
# Mask applied: None
# Dark current applied: None
# Flat field applied: None
# Polarization factor: None
# Normalization factor: None
BANK	1	1006	1006 CONS	293.393	1.90033 0.4133 0.0 FXYE
	293.393	0.497345	0.705227
	295.294	-0.0354553	0.188296
	297.194	0.266965	0.516687
	299.094	0.749281	0.86561
	300.995	1.36318	1.16755
	302.895	0.86579	0.930479
	304.795	0.196482	0.443263
	306.696	-0.201841	0.449268
	308.596	0.148836	0.385792
	310.496	0.678486	0.823702
	312.397	0.530295	0.728213
	314.297	0.440025	0.663344
	316.197	0.367839	0.606497
	318.098	0.612028	0.782322
	319.998	1.01128	1.00562
	321.898	0.969237	0.984498
	323.799	0.615883	0.784782
	325.699	0.307361	0.554402
	327.599	0.812103	0.901167
	329.5	1.13343	1.06462
	331.4	1.18304	1.08768
	333.3	0.800592	0.894758
	335.201	0.949565	0.974456
	337.101	1.79166	1.33853
	339.001	1.97898	1.40676
	340.902	1.46421	1.21005
	342.802	0.970242	0.985008
	344.702	1.12941	1.06274
	346.603	1.77007	1.33044
	348.503	2.16893	1.47273
	350.403	2.49633	1.57998
	352.304	3.25979	1.80549
	354.204	4.22659	2.05587
	356.104	5.76166	2.40035
	358.005	7.41412	2.72289
	359.905	8.64082	2.93953
	361.805	9.24576	3.04068
	363.706	8.55486	2.92487
	365.606	6.68455	2.58545
	367.506	4.27847	2.06845
	369.407	3.46005	1.86012
	371.307	2.64357	1.62591
	373.207	3.03168	1.74117
	375.108	2.61341	1.6166
	377.008	2.3239	1.52443
	378.908	2.05876	1.43484
	380.808	1.87051	1.36767
	382.709	1.42887	1.19536
	384.609	1.13964	1.06754
	386.509	0.9336	0.96623
	388.41	1.28949	1.13556
	390.31	1.94123	1.39328
	392.21	1.98671	1.40951
	394.111	1.4842	1.21828
	396.011	0.912084	0.955031
	397.911	0.872231	0.933933
	399.812	1.13243	1.06416
	401.712	0.935565	0.967246
	403.612	1.08409	1.0412
	405.513	0.941206	0.970158
	407.413	0.525848	0.725154
	409.313	-0.178766	0.422808
	411.214	0.0223188	0.149395
	413.114	0.169556	0.411771
	415.014	0.56948	0.754639
	416.915	0.643858	0.802407
	418.815	0.624733	0.7904
	420.715	0.645931	0.803699
	422.616	0.421647	0.649344
	424.516	0.919204	0.958751
	426.416	1.26726	1.12572
	428.317	1.0373	1.01848
	430.217	0.755648	0.86928
	432.117	0.261472	0.511343
	434.018	0.448657	0.669818
	435.918	0.567079	0.753046
	437.818	0.660136	0.812488
	439.719	0.737058	0.858521
	441.619	0.609674	0.780817
	443.519	1.01303	1.0065
	445.42	0.633043	0.79564
	447.32	0.927972	0.963313
	449.22	0.736786	0.858362
	451.121	1.1528	1.07368
	453.021	0.810419	0.900233
	454.921	1.1118	1.05442
	456.822	0.635548	0.797213
	458.722	0.962569	0.981106
	460.622	0.859379	0.927027
	462.523	0.640728	0.800455
	464.423	-0.0395689	0.198919
	466.323	-0.0361282	0.190074
	468.224	0.392091	0.626172
	470.124	1.38875	1.17845
	472.024	1.13315	1.06449
	473.924	1.00276	1.00138
	475.825	0.649632	0.805997
	477.725	0.367379	0.606118
	479.625	0.148854	0.385816
	481.526	-0.11435	0.338157
	483.426	0.0246747	0.157082
	485.326	0.239518	0.489406
	487.227	0.467062	0.683419
	489.127	0.684548	0.827374
	491.027	0.0469874	0.216766
	492.928	-0.0610801	0.247144
	494.828	0.121256	0.348219
	496.728	0.283372	0.532327
	498.629	0.473556	0.688154
	500.529	0.445336	0.667335
	502.429	0.763044	0.873524
	504.33	0.529707	0.72781
	506.23	0.664422	0.815121
	508.13	0.593217	0.770206
	510.031	0.941149	0.970128
	511.931	1.27244	1.12802
	513.831	1.20111	1.09595
	515.732	1.1678	1.08065
	517.632	1.09715	1.04745
	519.532	0.517693	0.719509
	521.433	0.208809	0.456956
	523.333	-0.161219	0.401521
	525.233	0.19446	0.440976
	527.134	0.906776	0.952248
	529.034	1.31748	1.14781
	530.934	1.15484	1.07463
	532.835	0.709045	0.842048
	534.735	0.152311	0.390271
	536.635	-0.0503937	0.224485
	538.536	0.00464325	0.0681414
	540.436	0.352476	0.593697
	542.336	0.57626	0.759118
	544.237	0.678952	0.823986
	546.137	0.243728	0.493689
	548.037	0.337554	0.580994
	549.938	0.340055	0.583143
	551.838	0.44269	0.66535
	553.738	0.371781	0.609739
	555.639	0.330145	0.574583
	557.539	0.28316	0.532127
	559.439	0.359742	0.599785
	561.34	0.502859	0.709126
	563.24	0.217094	0.465934
	565.14	0.280556	0.529676
	567.041	0.404299	0.635845
	568.941	0.574603	0.758026
	570.841	0.392569	0.626553
	572.741	0.358237	0.598529
	574.642	0.231527	0.481173
	576.542	0.318602	0.564448
	578.442	0.129806	0.360286
	580.343	0.0691056	0.262879
	582.243	-0.0121858	0.110389
	584.143	0.302665	0.55015
	586.044	0.630717	0.794177
	587.944	0.656039	0.809962
	589.844	0.857646	0.926092
	591.745	1.06083	1.02996
	593.645	2.12196	1.4567
	595.545	2.58004	1.60625
	597.446	3.38584	1.84007
	599.346	3.51947	1.87602
	601.246	4.02596	2.00648
	603.147	3.66765	1.91511
	605.047	2.91782	1.70816
	606.947	1.93275	1.39024
	608.848	1.31422	1.1464
	610.748	1.42112	1.19211
	612.648	1.40947	1.18721
	614.549	0.989873	0.994923
	616.449	0.655879	0.809864
	618.349	0.26631	0.516053
	620.25	0.0408559	0.202128
	622.15	-0.0670151	0.258873
	624.05	0.037967	0.194851
	625.951	0.191507	0.437615
	627.851	0.148517	0.385379
	629.751	0.282885	0.531869
	631.652	0.239039	0.488916
	633.552	0.0898307	0.299718
	635.452	-0.154602	0.393195
	637.353	-0.165473	0.406784
	639.253	0.169875	0.412159
	641.153	0.447722	0.66912
	643.054	0.90182	0.949642
	644.954	1.06758	1.03324
	646.854	1.14932	1.07206
	648.755	1.15325	1.0739
	650.655	1.18094	1.08671
	652.555	1.14944	1.07212
	654.456	1.73064	1.31554
	656.356	2.98358	1.7273
	658.256	4.44482	2.10827
	660.157	5.76506	2.40105
	662.057	6.24988	2.49998
	663.957	6.15643	2.48121
	665.857	5.68563	2.38446
	667.758	4.46357	2.11272
	669.658	2.97006	1.72339
	671.558	1.81689	1.34792
	673.459	1.44246	1.20102
	675.359	1.03398	1.01685
	677.259	0.597608	0.773051
	679.16	0.0917626	0.302923
	681.06	-0.0803515	0.283463
	682.96	0.433596	0.65848
	684.861	0.567964	0.753634
	686.761	0.719268	0.848097
	688.661	1.04689	1.02318
	690.562	1.63445	1.27845
	692.462	2.58934	1.60914
	694.362	4.22879	2.0564
	696.263	5.97973	2.44535
	698.163	7.93507	2.81693
	700.063	10.3689	3.22007
	701.964	12.3371	3.51243
	703.864	13.9524	3.73529
	705.764	15.1077	3.88687
	707.665	15.6895	3.96099
	709.565	15.928	3.99099
	711.465	16.536	4.06645
	713.366	18.2237	4.26892
	715.266	21.2331	4.60794
	717.166	26.3792	5.13607
	719.067	31.7464	5.6344
	720.967	38.5108	6.20571
	722.867	43.3357	6.58299
	724.768	45.0226	6.70989
	726.668	43.065	6.56239
	728.568	40.0726	6.33029
	730.469	35.0978	5.92434
	732.369	29.5475	5.43576
	734.269	24.1056	4.90975
	736.17	19.4225	4.4071
	738.07	16.4085	4.05074
	739.97	13.7556	3.70886
	741.871	11.8198	3.43799
	743.771	10.1463	3.18533
	745.671	8.83158	2.9718
	747.572	7.68618	2.7724
	749.472	6.70008	2.58845
	751.372	5.67487	2.3822
	753.273	4.6478	2.15587
	755.173	3.81349	1.95282
	757.073	3.52254	1.87684
	758.973	3.55705	1.88601
	760.874	3.43789	1.85415
	762.774	2.99966	1.73195
	764.674	2.68351	1.63814
	766.575	2.36608	1.53821
	768.475	2.35572	1.53483
	770.375	2.12982	1.45939
	772.276	1.69977	1.30375
	774.176	1.37723	1.17355
	776.076	1.39658	1.18177
	777.977	1.4474	1.20308
	779.877	1.25032	1.11818
	781.777	1.16036	1.0772
	783.678	1.03079	1.01528
	785.578	0.835849	0.914248
	787.478	0.684348	0.827253
	789.379	0.288678	0.537288
	791.279	0.106132	0.325778
	793.179	0.00834324	0.0913413
	795.08	0.337595	0.581029
	796.98	0.444352	0.666597
	798.88	0.292308	0.540655
	800.781	0.429775	0.655572
	802.681	0.584011	0.764206
	804.581	0.484286	0.695907
	806.482	0.171967	0.41469
	808.382	0.230946	0.480568
	810.282	0.0246812	0.157103
	812.183	0.134573	0.366842
	814.083	0.211798	0.460215
	815.983	0.617265	0.785662
	817.884	0.462282	0.679914
	819.784	0.0696893	0.263987
	821.684	0.050933	0.225683
	823.585	0.357551	0.597956
	825.485	0.372907	0.610661
	827.385	0.153204	0.391412
	829.286	0.0164885	0.128408
	831.186	0.424916	0.651856
	833.086	0.564049	0.751032
	834.987	0.310296	0.557042
	836.887	-0.203386	0.450984
	838.787	-0.254741	0.504719
	840.688	0.0847771	0.291165
	842.588	0.231784	0.481439
	844.488	0.50796	0.712713
	846.389	0.473044	0.687782
	848.289	0.344264	0.58674
	850.189	0.114351	0.338158
	852.089	0.0915788	0.30262
	853.99	0.179579	0.423768
	855.89	0.362739	0.602278
	857.79	0.420161	0.648198
	859.691	0.32964	0.574143
	861.591	0.197184	0.444054
	863.491	0.0357613	0.189107
	865.392	-0.221071	0.470181
	867.292	-0.314838	0.561104
	869.192	-0.0239204	0.154662
	871.093	0.182613	0.427332
	872.993	0.363463	0.602879
	874.893	0.358581	0.598816
	876.794	0.217823	0.466715
	878.694	0.0216716	0.147213
	880.594	-0.0581977	0.241242
	882.495	0.181865	0.426457
	884.395	0.240884	0.490799
	886.295	0.292116	0.540478
	888.196	-0.146027	0.382135
	890.096	-0.32554	0.570561
	891.996	-0.342166	0.58495
	893.897	-0.236349	0.486157
	895.797	-0.100639	0.317237
	897.697	-0.0632282	0.251452
	899.598	0.0117967	0.108613
	901.498	-0.0107493	0.103679
	903.398	-0.0225604	0.150201
	905.299	-0.103312	0.321422
	907.199	0.0366805	0.191522
	909.099	0.388679	0.623441
	911	0.720516	0.848832
	912.9	1.08612	1.04217
	914.8	1.35817	1.16541
	916.701	2.04397	1.42967
	918.601	2.94846	1.71711
	920.501	3.62401	1.90368
	922.402	4.04097	2.01022
	924.302	4.6481	2.15595
	926.202	5.673	2.38181
	928.103	6.95735	2.63768
	930.003	9.17945	3.02976
	931.903	11.695	3.41979
	933.804	14.8178	3.84939
	935.704	18.4223	4.29212
	937.604	23.6304	4.86111
	939.505	30.4868	5.52149
	941.405	39.832	6.31126
	943.305	51.4238	7.17104
	945.206	67.3022	8.20379
	947.106	87.9928	9.38045
	949.006	114.337	10.6928
	950.906	147.508	12.1453
	952.807	184.635	13.588
	954.707	223.635	14.9544
	956.607	258.434	16.0759
	958.508	281.147	16.7674
	960.408	290.386	17.0407
	962.308	288.759	16.9929
	964.209	280.591	16.7508
	966.109	268.121	16.3744
	968.009	252.197	15.8807
	969.91	236.165	15.3677
	971.81	219.185	14.8049
	973.71	203.546	14.267
	975.611	188.152	13.7169
	977.511	172.826	13.1463
	979.411	157.529	12.5511
	981.312	144.079	12.0033
	983.212	132.599	11.5151
	985.112	122.059	11.048
	987.013	112.681	10.6151
	988.913	105.244	10.2588
	990.813	97.8366	9.89124
	992.714	92.347	9.60973
	994.614	87.1801	9.33703
	996.514	83.0759	9.1146
	998.415	79.8801	8.93757
	1000.31	75.9693	8.71604
	1002.22	72.3395	8.50526
	1004.12	68.7041	8.28879
	1006.02	64.5579	8.03479
	1007.92	60.4238	7.77327
	1009.82	55.6802	7.46191
	1011.72	51.2302	7.15753
	1013.62	46.4409	6.81476
	1015.52	41.9629	6.47788
	1017.42	37.655	6.13637
	1019.32	34.1378	5.84276
	1021.22	30.7337	5.5438
	1023.12	27.7812	5.27079
	1025.02	24.675	4.96739
	1026.92	21.7179	4.66024
	1028.82	18.4636	4.29693
	1030.72	15.4531	3.93105
	1032.62	12.6606	3.55817
	1034.52	10.6847	3.26875
	1036.42	8.76641	2.96081
	1038.32	7.2977	2.70143
	1040.22	5.46065	2.3368
	1042.12	3.92304	1.98067
	1044.02	2.67095	1.6343
	1045.92	2.10545	1.45102
	1047.82	1.25959	1.12231
	1049.72	0.59599	0.772004
	1051.62	-0.16293	0.403646
	1053.52	-0.690862	0.831181
	1055.42	-1.20248	1.09658
	1057.32	-0.960721	0.980164
	1059.23	-0.871644	0.933619
	1061.13	-0.639526	0.799704
	1063.03	-0.115302	0.339561
	1064.93	1.00641	1.0032
	1066.83	2.60075	1.61268
	1068.73	4.1508	2.03735
	1070.63	5.3496	2.31292
	1072.53	5.93831	2.43686
	1074.43	6.25753	2.50151
	1076.33	7.0146	2.64851
	1078.23	7.17179	2.67802
	1080.13	6.89027	2.62493
	1082.03	5.77387	2.40289
	1083.93	5.15445	2.27034
	1085.83	4.61363	2.14794
	1087.73	4.31755	2.07787
	1089.63	3.59075	1.89493
	1091.53	3.4912	1.86847
	1093.43	2.95337	1.71854
	1095.33	2.47481	1.57315
	1097.23	2.13355	1.46067
	1099.13	1.60762	1.26792
	1101.03	1.08316	1.04075
	1102.93	1.0673	1.0331
	1104.83	1.35404	1.16363
	1106.73	2.19526	1.48164
	1108.63	2.73589	1.65405
	1110.53	3.13563	1.77077
	1112.43	3.53013	1.87886
	1114.33	4.02222	2.00555
	1116.23	4.30173	2.07406
	1118.14	4.41269	2.10064
	1120.04	4.36495	2.08925
	1121.94	4.20445	2.05048
	1123.84	3.45324	1.85829
	1125.74	2.94391	1.71578
	1127.64	2.72198	1.64984
	1129.54	2.73675	1.65431
	1131.44	2.30585	1.5185
	1133.34	1.87499	1.3693
	1135.24	1.40483	1.18525
	1137.14	1.44995	1.20414
	1139.04	1.88214	1.37191
	1140.94	2.38837	1.54544
	1142.84	2.7834	1.66835
	1144.74	2.68466	1.63849
	1146.64	2.61336	1.61659
	1148.54	2.14579	1.46485
	1150.44	2.3967	1.54813
	1152.34	2.07654	1.44102
	1154.24	1.76317	1.32784
	1156.14	1.52105	1.23331
	1158.04	1.27305	1.12829
	1159.94	1.19946	1.0952
	1161.84	0.910274	0.954083
	1163.74	0.959213	0.979394
	1165.64	0.775096	0.880395
	1167.54	0.99661	0.998303
	1169.44	1.09352	1.04572
	1171.34	0.836659	0.914691
	1173.24	0.580346	0.761804
	1175.15	0.0839136	0.289678
	1177.05	0.0928475	0.304709
	1178.95	-0.17978	0.424005
	1180.85	-0.371957	0.609882
	1182.75	-0.401181	0.633389
	1184.65	-0.550262	0.741796
	1186.55	-0.73059	0.854745
	1188.45	-0.779624	0.882963
	1190.35	-0.644486	0.802799
	1192.25	-0.568834	0.754211
	1194.15	-0.223539	0.472799
	1196.05	-0.0739486	0.271935
	1197.95	0.0138017	0.117481
	1199.85	0.123664	0.351659
	1201.75	0.422108	0.649699
	1203.65	0.698783	0.835932
	1205.55	1.02827	1.01404
	1207.45	1.2483	1.11727
	1209.35	2.28798	1.51261
	1211.25	3.59887	1.89707
	1213.15	5.03118	2.24303
	1215.05	5.99302	2.44807
	1216.95	6.88455	2.62384
	1218.85	8.47566	2.9113
	1220.75	10.5896	3.25417
	1222.65	12.8772	3.58849
	1224.55	15.146	3.89178
	1226.45	19.0625	4.36606
	1228.35	23.7312	4.87147
	1230.25	29.774	5.45655
	1232.15	36.8663	6.07176
	1234.06	46.1542	6.79369
	1235.96	58.2609	7.63288
	1237.86	73.5514	8.57621
	1239.76	92.9813	9.64268
	1241.66	118.788	10.899
	1243.56	148.846	12.2002
	1245.46	187.398	13.6893
	1247.36	231.504	15.2153
	1249.26	281.356	16.7737
	1251.16	335.441	18.315
	1253.06	387.895	19.695
	1254.96	432.408	20.7944
	1256.86	463.989	21.5404
	1258.76	483.336	21.9849
	1260.66	487.064	22.0695
	1262.56	476.217	21.8224
	1264.46	454.219	21.3124
	1266.36	422.235	20.5484
	1268.26	382.645	19.5613
	1270.16	338.086	18.3871
	1272.06	291.046	17.0601
	1273.96	245.388	15.6649
	1275.86	201.364	14.1903
	1277.76	161.877	12.7231
	1279.66	129.201	11.3667
	1281.56	102.371	10.1178
	1283.46	82.1922	9.06599
	1285.36	66.9474	8.18214
	1287.26	55.8245	7.47158
	1289.16	48.1455	6.93869
	1291.06	41.6616	6.45458
	1292.97	36.795	6.06589
	1294.87	32.4467	5.6962
	1296.77	29.3874	5.42101
	1298.67	27.0002	5.19617
	1300.57	24.8917	4.98916
	1302.47	22.9351	4.78906
	1304.37	20.6592	4.54524
	1306.27	18.9269	4.3505
	1308.17	17.4233	4.17413
	1310.07	16.3377	4.04199
	1311.97	15.1906	3.89751
	1313.87	14.4693	3.80385
	1315.77	13.2498	3.64003
	1317.67	11.8434	3.44142
	1319.57	10.3424	3.21596
	1321.47	9.2053	3.03402
	1323.37	8.33513	2.88706
	1325.27	7.35951	2.71284
	1327.17	6.7985	2.60739
	1329.07	6.24421	2.49884
	1330.97	5.78375	2.40494
	1332.87	5.08925	2.25594
	1334.77	4.26048	2.06409
	1336.67	3.78633	1.94585
	1338.57	2.92611	1.71059
	1340.47	2.76338	1.66234
	1342.37	2.35172	1.53353
	1344.27	2.21371	1.48785
	1346.17	2.00244	1.41507
	1348.07	2.07763	1.4414
	1349.98	1.88789	1.37401
	1351.88	1.72705	1.31417
	1353.78	1.82934	1.35253
	1355.68	2.24828	1.49943
	1357.58	2.64845	1.62741
	1359.48	2.87727	1.69625
	1361.38	2.88045	1.69719
	1363.28	2.88641	1.69894
	1365.18	2.88643	1.69895
	1367.08	2.9255	1.71041
	1368.98	3.1217	1.76683
	1370.88	3.17644	1.78226
	1372.78	3.28909	1.81359
	1374.68	3.2693	1.80812
	1376.58	3.15939	1.77747
	1378.48	3.15557	1.77639
	1380.38	2.74423	1.65657
	1382.28	2.36475	1.53777
	1384.18	2.08194	1.44289
	1386.08	1.78637	1.33655
	1387.98	1.38904	1.17858
	1389.88	1.07155	1.03516
	1391.78	0.434252	0.658978
	1393.68	0.237074	0.486902
	1395.58	0.160306	0.400383
	1397.48	0.491842	0.701315
	1399.38	0.304893	0.552172
	1401.28	0.0758377	0.275386
	1403.18	-0.493013	0.702149
	1405.08	-0.637243	0.798275
	1406.98	-0.549393	0.741211
	1408.89	-0.489872	0.699909
	1410.79	-0.171389	0.413991
	1412.69	-0.253379	0.503368
	1414.59	0.110429	0.332309
	1416.49	0.31296	0.559428
	1418.39	0.607965	0.779721
	1420.29	0.861124	0.927968
	1422.19	1.24305	1.11492
	1424.09	1.51428	1.23056
	1425.99	1.74974	1.32278
	1427.89	1.87387	1.36889
	1429.79	2.60884	1.61519
	1431.69	3.61325	1.90086
	1433.59	4.79229	2.18913
	1435.49	5.58544	2.36335
	1437.39	5.98998	2.44744
	1439.29	6.18287	2.48654
	1441.19	6.10425	2.47068
	1443.09	6.4113	2.53206
	1444.99	6.77776	2.60341
	1446.89	7.04239	2.65375
	1448.79	6.76117	2.60022
	1450.69	6.65921	2.58054
	1452.59	6.97703	2.64141
	1454.49	7.43676	2.72704
	1456.39	7.47725	2.73446
	1458.29	7.58124	2.75341
	1460.19	7.53305	2.74464
	1462.09	7.62892	2.76205
	1463.99	7.43462	2.72665
	1465.89	7.07819	2.66049
	1467.8	6.592	2.56749
	1469.7	6.15168	2.48026
	1471.6	5.49039	2.34316
	1473.5	4.69084	2.16584
	1475.4	3.8914	1.97266
	1477.3	2.88137	1.69746
	1479.2	2.19342	1.48102
	1481.1	1.74581	1.32129
	1483	1.73934	1.31884
	1484.9	1.15245	1.07352
	1486.8	0.848919	0.921368
	1488.7	0.25367	0.503656
	1490.6	0.311173	0.557829
	1492.5	0.368198	0.606793
	1494.4	0.386564	0.621742
	1496.3	0.156441	0.395526
	1498.2	-0.165056	0.40627
	1500.1	-0.268541	0.518209
	1502	-0.194541	0.441068
	1503.9	-0.278225	0.52747
	1505.8	-0.44803	0.66935
	1507.7	-0.317321	0.563313
	1509.6	-0.105517	0.324834
	1511.5	0.00197585	0.0444505
	1513.4	-0.0548985	0.234304
	1515.3	-0.154354	0.392879
	1517.2	-0.23971	0.489602
	1519.1	-0.234806	0.484568
	1521	-0.343931	0.586457
	1522.9	-0.130813	0.361681
	1524.81	0.100889	0.31763
	1526.71	0.0304716	0.174561
	1528.61	0.13234	0.363785
	1530.51	-0.0787552	0.280633
	1532.41	0.191042	0.437084
	1534.31	0.231976	0.481639
	1536.21	0.307537	0.55456
	1538.11	0.221519	0.470658
	1540.01	0.616412	0.785119
	1541.91	0.637383	0.798363
	1543.81	0.655334	0.809527
	1545.71	0.639001	0.799375
	1547.61	1.09369	1.0458
	1549.51	1.33871	1.15702
	1551.41	1.51689	1.23162
	1553.31	1.32798	1.15238
	1555.21	0.962624	0.981134
	1557.11	0.746001	0.863713
	1559.01	0.697273	0.835029
	1560.91	0.824826	0.9082
	1562.81	1.00156	1.00078
	1564.71	1.00838	1.00418
	1566.61	0.938059	0.968534
	1568.51	0.751514	0.866899
	1570.41	0.598162	0.773409
	1572.31	0.613124	0.783023
	1574.21	0.434075	0.658844
	1576.11	0.565019	0.751678
	1578.01	0.723736	0.850727
	1579.91	0.645609	0.803498
	1581.81	0.378482	0.615209
	1583.72	-0.0277486	0.166579
	1585.62	-0.0620621	0.249123
	1587.52	0.0649754	0.254903
	1589.42	0.630714	0.794175
	1591.32	0.623698	0.789746
	1593.22	0.387803	0.622739
	1595.12	0.223289	0.472535
	1597.02	0.299492	0.547259
	1598.92	0.259161	0.509078
	1600.82	-0.140841	0.375288
	1602.72	-0.273508	0.52298
	1604.62	-0.0437006	0.209047
	1606.52	0.125646	0.354466
	1608.42	-0.106924	0.326993
	1610.32	-0.0220678	0.148552
	1612.22	0.26577	0.515529
	1614.12	0.530644	0.728453
	1616.02	0.55195	0.742933
	1617.92	0.61247	0.782605
	1619.82	0.81463	0.902569
	1621.72	1.08702	1.0426
	1623.62	1.66572	1.29063
	1625.52	2.34586	1.53162
	1627.42	3.00445	1.73334
	1629.32	3.28409	1.81221
	1631.22	3.48405	1.86656
	1633.12	4.04318	2.01077
	1635.02	4.76839	2.18366
	1636.92	5.95939	2.44119
	1638.82	7.29481	2.70089
	1640.73	8.32563	2.88542
	1642.63	9.65843	3.1078
	1644.53	11.3675	3.37157
	1646.43	13.4423	3.66638
	1648.33	15.8206	3.97751
	1650.23	17.7071	4.20798
