Generated file C:/Users/didvk/Downloads/Dioptas_Win64_0.5.0/1_mask&dat&fxye_1position/23_ReMoB2_910psi_noRuby_S_P1_C1_D1w_145.fxye using DIOPTAS
# == pyFAI calibration ==
# Distance Sample to Detector: 0.21643023575112377 m
# PONI: 8.848e-02, 8.638e-02 m
# Rotations: 0.008179 -0.001145 -0.000000 rad
# 
# == Fit2d calibration ==
# Distance Sample-beamCenter: 216.438 mm
# Center: x=491.896, y=512.970 pix
# Tilt: 0.473 deg  TiltPlanRot: -172.032 deg
# 
# Detector Pilatus CdTe 1M	 PixelSize= 1.720e-04, 1.720e-04 m
#    Detector has a mask: True 
#    Detector has a dark current: False 
#    detector has a flat field: False 
# 
# Wavelength: 4.133e-11 m
# Mask applied: None
# Dark current applied: None
# Flat field applied: None
# Polarization factor: None
# Normalization factor: None
BANK	1	1006	1006 CONS	293.393	1.90033 0.4133 0.0 FXYE
	293.393	0.393879	0.627598
	295.294	0.206135	0.454021
	297.194	0.367578	0.606282
	299.094	0.588655	0.767239
	300.995	1.35956	1.166
	302.895	1.80969	1.34525
	304.795	1.55185	1.24573
	306.696	1.06117	1.03013
	308.596	0.397648	0.630593
	310.496	0.463814	0.681039
	312.397	0.34494	0.587316
	314.297	0.721768	0.849569
	316.197	1.11034	1.05373
	318.098	1.71938	1.31125
	319.998	1.80109	1.34205
	321.898	2.07718	1.44124
	323.799	2.202	1.48391
	325.699	1.94884	1.39601
	327.599	1.05493	1.0271
	329.5	0.904704	0.951159
	331.4	0.796144	0.892269
	333.3	1.15288	1.07372
	335.201	1.23505	1.11133
	337.101	1.65711	1.28729
	339.001	1.80186	1.34234
	340.902	1.76879	1.32996
	342.802	1.64612	1.28301
	344.702	1.44335	1.20139
	346.603	1.0615	1.03029
	348.503	1.20093	1.09587
	350.403	1.87263	1.36844
	352.304	2.94999	1.71755
	354.204	3.91268	1.97805
	356.104	5.86545	2.42187
	358.005	8.09675	2.84548
	359.905	10.5721	3.25148
	361.805	12.2988	3.50696
	363.706	12.6541	3.55725
	365.606	11.4275	3.38045
	367.506	9.02648	3.00441
	369.407	6.52962	2.55531
	371.307	4.64372	2.15493
	373.207	3.71342	1.92702
	375.108	2.50264	1.58197
	377.008	2.26431	1.50476
	378.908	1.66627	1.29084
	380.808	1.37585	1.17296
	382.709	1.23652	1.11199
	384.609	1.24568	1.1161
	386.509	1.17651	1.08467
	388.41	0.846661	0.920142
	390.31	0.576175	0.759062
	392.21	0.75386	0.868251
	394.111	1.07157	1.03516
	396.011	1.16256	1.07822
	397.911	1.23094	1.10948
	399.812	0.940939	0.97002
	401.712	0.768396	0.876582
	403.612	0.508241	0.71291
	405.513	0.505482	0.710972
	407.413	0.639562	0.799726
	409.313	0.691006	0.831268
	411.214	1.11285	1.05492
	413.114	1.0778	1.03817
	415.014	1.0014	1.0007
	416.915	0.801203	0.8951
	418.815	0.984966	0.992454
	420.715	1.33472	1.1553
	422.616	1.40482	1.18525
	424.516	1.16601	1.07982
	426.416	1.19032	1.09102
	428.317	0.85421	0.924235
	430.217	0.803243	0.896239
	432.117	0.6683	0.817496
	434.018	0.510291	0.714346
	435.918	0.501925	0.708467
	437.818	0.281743	0.530795
	439.719	0.247089	0.497081
	441.619	0.181346	0.425847
	443.519	-0.120954	0.347784
	445.42	-0.227861	0.477348
	447.32	0.156066	0.395052
	449.22	0.915321	0.956724
	451.121	1.73221	1.31614
	453.021	1.10871	1.05295
	454.921	0.297725	0.545642
	456.822	-0.137126	0.370305
	458.722	0.0358905	0.189448
	460.622	0.295117	0.543246
	462.523	0.580855	0.762139
	464.423	0.735053	0.857353
	466.323	0.86097	0.927885
	468.224	1.1155	1.05617
	470.124	0.910979	0.954452
	472.024	0.594986	0.771353
	473.924	0.844427	0.918927
	475.825	1.14146	1.06839
	477.725	1.02612	1.01298
	479.625	1.07165	1.03521
	481.526	1.11499	1.05593
	483.426	1.10183	1.04968
	485.326	0.828093	0.909996
	487.227	1.11805	1.05738
	489.127	1.65659	1.28709
	491.027	1.35202	1.16276
	492.928	0.806633	0.898127
	494.828	0.599912	0.77454
	496.728	-0.0144491	0.120204
	498.629	0.209581	0.4578
	500.529	0.419404	0.647614
	502.429	0.583889	0.764126
	504.33	0.292177	0.540534
	506.23	0.417512	0.646152
	508.13	0.19314	0.439476
	510.031	-0.0141709	0.119042
	511.931	-0.170935	0.413443
	513.831	-0.0612329	0.247453
	515.732	0.50586	0.711238
	517.632	0.61815	0.786225
	519.532	0.977912	0.988894
	521.433	1.08845	1.04329
	523.333	1.12398	1.06018
	525.233	0.686763	0.828711
	527.134	0.682858	0.826352
	529.034	0.386743	0.621887
	530.934	0.255935	0.5059
	532.835	0.299558	0.547319
	534.735	0.327621	0.572381
	536.635	0.7476	0.864639
	538.536	0.500636	0.707557
	540.436	0.0685811	0.26188
	542.336	-0.0415317	0.203793
	544.237	0.213346	0.461893
	546.137	0.684384	0.827275
	548.037	0.477639	0.691114
	549.938	0.307195	0.554252
	551.838	0.117904	0.343372
	553.738	-0.00438557	0.0662236
	555.639	0.127721	0.35738
	557.539	0.177441	0.421238
	559.439	0.304213	0.551555
	561.34	0.483234	0.695151
	563.24	0.572187	0.75643
	565.14	0.705009	0.839648
	567.041	1.09214	1.04506
	568.941	0.816984	0.903871
	570.841	0.52155	0.722184
	572.741	-0.0292414	0.171001
	574.642	-0.0773366	0.278095
	576.542	-0.0885779	0.29762
	578.442	0.0816606	0.285763
	580.343	0.157891	0.397356
	582.243	0.137643	0.371002
	584.143	-0.0149863	0.122418
	586.044	0.0734869	0.271085
	587.944	0.400434	0.632799
	589.844	0.676186	0.822305
	591.745	0.820568	0.905852
	593.645	1.25628	1.12084
	595.545	1.48863	1.2201
	597.446	1.85992	1.36379
	599.346	2.12755	1.45861
	601.246	2.39947	1.54902
	603.147	1.97654	1.40589
	605.047	2.09887	1.44875
	606.947	2.02155	1.42181
	608.848	1.49435	1.22243
	610.748	1.00565	1.00282
	612.648	0.818702	0.904821
	614.549	0.736236	0.858042
	616.449	0.400322	0.63271
	618.349	0.0163907	0.128026
	620.25	-0.1091	0.330302
	622.15	-0.0627716	0.250543
	624.05	-0.14058	0.37494
	625.951	0.39032	0.624756
	627.851	0.42887	0.654882
	629.751	0.535812	0.731992
	631.652	0.00675445	0.0821855
	633.552	0.0467563	0.216232
	635.452	0.0770984	0.277666
	637.353	0.214486	0.463126
	639.253	0.515524	0.718
	641.153	0.881146	0.938694
	643.054	0.962134	0.980884
	644.954	0.58971	0.767926
	646.854	0.310364	0.557103
	648.755	0.238348	0.488209
	650.655	0.430464	0.656098
	652.555	0.751937	0.867143
	654.456	1.26024	1.1226
	656.356	1.16814	1.0808
	658.256	1.38034	1.17488
	660.157	2.63272	1.62257
	662.057	4.28732	2.07058
	663.957	5.46995	2.33879
	665.857	5.54912	2.35566
	667.758	4.70364	2.16879
	669.658	3.87962	1.96967
	671.558	2.77503	1.66584
	673.459	1.85432	1.36173
	675.359	0.973143	0.98648
	677.259	0.310031	0.556805
	679.16	-0.0296312	0.172137
	681.06	0.0477813	0.218589
	682.96	0.132524	0.364039
	684.861	-0.0556425	0.235887
	686.761	-0.188785	0.434494
	688.661	0.373354	0.611027
	690.562	1.1559	1.07513
	692.462	1.55862	1.24845
	694.362	1.80364	1.343
	696.263	2.2608	1.5036
	698.163	3.39714	1.84313
	700.063	4.6805	2.16345
	701.964	6.1457	2.47905
	703.864	7.38621	2.71776
	705.764	8.89056	2.9817
	707.665	9.80991	3.13208
	709.565	11.2363	3.35207
	711.465	12.6728	3.55989
	713.366	14.8222	3.84996
	715.266	16.8249	4.10182
	717.166	21.1036	4.59386
	719.067	25.8952	5.08873
	720.967	33.4174	5.78077
	722.867	41.2223	6.42046
	724.768	48.2854	6.94877
	726.668	53.3903	7.30687
	728.568	54.6228	7.39072
	730.469	50.8806	7.13306
	732.369	45.5277	6.74742
	734.269	39.0077	6.24561
	736.17	32.5378	5.70419
	738.07	26.9735	5.1936
	739.97	22.3506	4.72764
	741.871	18.6749	4.32145
	743.771	16.1606	4.02003
	745.671	13.623	3.69093
	747.572	12.1873	3.49103
	749.472	10.5972	3.25534
	751.372	9.67478	3.11043
	753.273	8.37714	2.89433
	755.173	7.24846	2.6923
	757.073	6.38764	2.52738
	758.973	6.03659	2.45695
	760.874	6.07882	2.46553
	762.774	5.83127	2.4148
	764.674	5.44783	2.33406
	766.575	4.76418	2.1827
	768.475	3.93722	1.98424
	770.375	3.77249	1.94229
	772.276	3.82925	1.95685
	774.176	4.03712	2.00926
	776.076	3.497	1.87003
	777.977	2.88106	1.69737
	779.877	2.29985	1.51652
	781.777	2.32872	1.52601
	783.678	2.17002	1.4731
	785.578	2.48914	1.5777
	787.478	2.26056	1.50351
	789.379	1.98198	1.40783
	791.279	1.69794	1.30305
	793.179	1.28368	1.133
	795.08	0.907779	0.952775
	796.98	0.328411	0.573071
	798.88	0.558066	0.747038
	800.781	0.435748	0.660112
	802.681	0.68138	0.825457
	804.581	0.281079	0.530168
	806.482	0.277058	0.526363
	808.382	-0.0956191	0.309223
	810.282	0.233079	0.482783
	812.183	0.566047	0.752361
	814.083	0.475038	0.68923
	815.983	0.386341	0.621563
	817.884	0.284462	0.53335
	819.784	0.252575	0.502568
	821.684	0.137516	0.370831
	823.585	0.0519501	0.227926
	825.485	0.0808291	0.284305
	827.385	0.320405	0.566043
	829.286	0.30029	0.547987
	831.186	0.182587	0.427302
	833.086	0.0883666	0.297265
	834.987	0.399484	0.632047
	836.887	0.715065	0.845615
	838.787	0.996311	0.998154
	840.688	0.842196	0.917712
	842.588	0.897469	0.947348
	844.488	0.958353	0.978955
	846.389	0.720932	0.849077
	848.289	0.296601	0.54461
	850.189	0.227434	0.4769
	852.089	0.187556	0.433078
	853.99	0.692311	0.832052
	855.89	0.790166	0.888913
	857.79	0.738467	0.859341
	859.691	0.211977	0.46041
	861.591	-0.116858	0.341845
	863.491	-0.446507	0.668212
	865.392	-0.388953	0.623661
	867.292	-0.0310942	0.176335
	869.192	0.240091	0.489991
	871.093	0.231776	0.481431
	872.993	0.108628	0.329588
	874.893	-0.14498	0.380762
	876.794	-0.408478	0.639122
	878.694	-0.386613	0.621782
	880.594	0.102419	0.32003
	882.495	0.634284	0.796419
	884.395	0.650234	0.806371
	886.295	0.328462	0.573116
	888.196	-0.291232	0.539659
	890.096	-0.38935	0.623979
	891.996	-0.252774	0.502766
	893.897	-0.0591112	0.243128
	895.797	-0.00540124	0.0734931
	897.697	-0.0928294	0.304679
	899.598	-0.193666	0.440075
	901.498	-0.0707037	0.265902
	903.398	0.117781	0.343193
	905.299	0.321862	0.567329
	907.199	0.480654	0.693292
	909.099	0.389422	0.624037
	911	0.383884	0.619584
	912.9	0.489419	0.699585
	914.8	0.631276	0.794529
	916.701	1.40147	1.18384
	918.601	2.13921	1.4626
	920.501	2.29008	1.5133
	922.402	2.54697	1.59592
	924.302	3.08155	1.75543
	926.202	4.23777	2.05858
	928.103	5.18097	2.27618
	930.003	6.40466	2.53074
	931.903	7.91539	2.81343
	933.804	10.0823	3.17526
	935.704	12.3505	3.51433
	937.604	15.1588	3.89343
	939.505	18.5947	4.31215
	941.405	23.385	4.83581
	943.305	29.2208	5.40563
	945.206	37.1508	6.09515
	947.106	47.256	6.8743
	949.006	60.1601	7.75629
	950.906	78.1072	8.83783
	952.807	101.064	10.053
	954.707	133.495	11.554
	956.607	170.741	13.0668
	958.508	210	14.4914
	960.408	246.152	15.6892
	962.308	274.138	16.5571
	964.209	291.107	17.0619
	966.109	294.755	17.1684
	968.009	287.212	16.9473
	969.91	272.62	16.5112
	971.81	255.092	15.9716
	973.71	237.211	15.4017
	975.611	218.845	14.7934
	977.511	200.403	14.1564
	979.411	183.521	13.547
	981.312	168.9	12.9962
	983.212	155.577	12.4731
	985.112	143.531	11.9805
	987.013	132.636	11.5168
	988.913	122.974	11.0894
	990.813	113.59	10.6579
	992.714	106.153	10.303
	994.614	99.7006	9.98502
	996.514	94.6545	9.72905
	998.415	90.7636	9.527
	1000.31	86.8978	9.3219
	1002.22	83.7895	9.15366
	1004.12	81.3051	9.01694
	1006.02	78.6435	8.86812
	1007.92	75.8817	8.71101
	1009.82	71.5365	8.45792
	1011.72	66.8335	8.17517
	1013.62	62.0711	7.87852
	1015.52	56.8302	7.53858
	1017.42	51.704	7.19055
	1019.32	46.6381	6.82921
	1021.22	41.9901	6.47998
	1023.12	37.3107	6.10825
	1025.02	32.9771	5.74257
	1026.92	28.7903	5.36566
	1028.82	24.7842	4.97838
	1030.72	20.7872	4.55929
	1032.62	17.6072	4.19609
	1034.52	14.7223	3.83696
	1036.42	12.3023	3.50746
	1038.32	10.3861	3.22275
	1040.22	8.61845	2.93572
	1042.12	6.94128	2.63463
	1044.02	5.1161	2.26188
	1045.92	3.80995	1.95191
	1047.82	2.66734	1.6332
	1049.72	1.80921	1.34507
	1051.62	1.06392	1.03146
	1053.52	0.470528	0.68595
	1055.42	-0.193401	0.439774
	1057.32	-0.679524	0.824332
	1059.23	-0.939362	0.969207
	1061.13	-0.851646	0.922847
	1063.03	-0.498591	0.70611
	1064.93	-0.684787	0.827519
	1066.83	-0.904424	0.951012
	1068.73	-0.705021	0.839655
	1070.63	0.207765	0.455812
	1072.53	1.16369	1.07874
	1074.43	1.67208	1.29309
	1076.33	2.12139	1.4565
	1078.23	2.951	1.71785
	1080.13	3.39137	1.84157
	1082.03	3.77467	1.94285
	1083.93	3.65905	1.91286
	1085.83	3.83074	1.95723
	1087.73	4.02612	2.00652
	1089.63	4.38633	2.09436
	1091.53	4.51695	2.12531
	1093.43	4.04822	2.01202
	1095.33	3.10061	1.76086
	1097.23	2.40316	1.55021
	1099.13	2.23128	1.49375
	1101.03	1.8244	1.3507
	1102.93	1.58865	1.26042
	1104.83	0.728208	0.853351
	1106.73	0.231034	0.48066
	1108.63	-0.0528297	0.229847
	1110.53	0.207581	0.455611
	1112.43	0.645307	0.80331
	1114.33	0.795325	0.89181
	1116.23	1.02696	1.01339
	1118.14	0.809655	0.899808
	1120.04	1.08148	1.03994
	1121.94	1.41809	1.19084
	1123.84	1.51916	1.23254
	1125.74	1.68774	1.29913
	1127.64	1.69509	1.30196
	1129.54	1.47988	1.2165
	1131.44	1.71109	1.30809
	1133.34	1.73779	1.31825
	1135.24	1.85717	1.36278
	1137.14	1.81474	1.34712
	1139.04	2.01885	1.42086
	1140.94	2.1848	1.47811
	1142.84	2.53325	1.59162
	1144.74	2.88758	1.69929
	1146.64	3.13236	1.76985
	1148.54	3.02091	1.73808
	1150.44	2.82206	1.6799
	1152.34	2.54276	1.5946
	1154.24	2.43734	1.5612
	1156.14	2.43314	1.55985
	1158.04	2.91913	1.70855
	1159.94	3.22548	1.79596
	1161.84	2.8639	1.69231
	1163.74	2.55439	1.59825
	1165.64	2.25634	1.50211
	1167.54	1.88434	1.37271
	1169.44	1.44509	1.20212
	1171.34	1.04189	1.02073
	1173.24	0.864862	0.92998
	1175.15	0.545965	0.738895
	1177.05	0.5152	0.717774
	1178.95	0.22929	0.478842
	1180.85	0.0784089	0.280016
	1182.75	-0.166811	0.408425
	1184.65	-0.402152	0.634154
	1186.55	-0.756491	0.869765
	1188.45	-0.562272	0.749848
	1190.35	-0.49416	0.702965
	1192.25	-0.472835	0.68763
	1194.15	-0.955171	0.977328
	1196.05	-0.600458	0.774892
	1197.95	0.0191257	0.138296
	1199.85	0.212873	0.461382
	1201.75	-0.0388098	0.197002
	1203.65	0.117269	0.342446
	1205.55	0.363264	0.602714
	1207.45	0.496115	0.704355
	1209.35	0.655346	0.809534
	1211.25	1.14586	1.07045
	1213.15	2.13757	1.46204
	1215.05	3.20355	1.78985
	1216.95	3.82587	1.95598
	1218.85	4.53747	2.13013
	1220.75	5.76527	2.4011
	1222.65	7.10394	2.66532
	1224.55	8.49661	2.91489
	1226.45	10.3663	3.21968
	1228.35	12.7678	3.5732
	1230.25	15.8827	3.98531
	1232.15	19.5904	4.4261
	1234.06	24.5877	4.9586
	1235.96	30.5936	5.53115
	1237.86	37.7717	6.14587
	1239.76	46.4797	6.8176
	1241.66	58.7719	7.66628
	1243.56	73.8794	8.59531
	1245.46	94.2407	9.70777
	1247.36	119.885	10.9492
	1249.26	150.519	12.2686
	1251.16	190.29	13.7946
	1253.06	234.689	15.3196
	1254.96	288.665	16.9902
	1256.86	344.887	18.5711
	1258.76	400.687	20.0172
	1260.66	448.364	21.1746
	1262.56	483.553	21.9898
	1264.46	503.094	22.4298
	1266.36	506.302	22.5011
	1268.26	496.967	22.2927
	1270.16	471.362	21.7109
	1272.06	438.442	20.939
	1273.96	399.275	19.9819
	1275.86	354.183	18.8197
	1277.76	306.209	17.4988
	1279.66	260.299	16.1338
	1281.56	214.69	14.6523
	1283.46	175.603	13.2515
	1285.36	140.592	11.8571
	1287.26	111.749	10.5712
	1289.16	89.7441	9.47333
	1291.06	72.0568	8.48863
	1292.97	59.7071	7.72704
	1294.87	50.178	7.08365
	1296.77	43.1613	6.56973
	1298.67	37.5963	6.13158
	1300.57	32.8293	5.72969
	1302.47	29.0468	5.38951
	1304.37	25.9827	5.09732
	1306.27	23.3155	4.82861
	1308.17	21.5573	4.64298
	1310.07	19.8525	4.45562
	1311.97	18.2889	4.27655
	1313.87	16.9488	4.11689
	1315.77	15.5982	3.94945
	1317.67	14.4146	3.79666
	1319.57	13.3854	3.6586
	1321.47	12.6016	3.54987
	1323.37	11.6085	3.40713
	1325.27	10.5826	3.25309
	1327.17	9.84911	3.13833
	1329.07	8.85093	2.97505
	1330.97	7.82774	2.79781
	1332.87	7.30509	2.70279
	1334.77	6.90766	2.62824
	1336.67	5.97065	2.44349
	1338.57	5.09013	2.25613
	1340.47	4.6588	2.15843
	1342.37	4.64502	2.15523
	1344.27	4.3142	2.07707
	1346.17	3.77474	1.94287
	1348.07	3.19643	1.78786
	1349.98	2.96807	1.72281
	1351.88	3.08245	1.75569
	1353.78	3.24645	1.80179
	1355.68	3.17289	1.78126
	1357.58	2.99662	1.73107
	1359.48	3.11765	1.76569
	1361.38	3.09508	1.75928
	1363.28	3.59266	1.89543
	1365.18	3.57528	1.89084
	1367.08	3.54596	1.88307
	1368.98	3.21283	1.79244
	1370.88	3.16028	1.77772
	1372.78	3.26857	1.80792
	1374.68	3.21636	1.79342
	1376.58	3.20751	1.79095
	1378.48	3.29975	1.81652
	1380.38	3.40454	1.84514
	1382.28	3.22712	1.79642
	1384.18	2.78821	1.66979
	1386.08	2.62919	1.62148
	1387.98	2.09889	1.44875
	1389.88	1.63265	1.27775
	1391.78	1.60209	1.26574
	1393.68	1.5585	1.2484
	1395.58	1.37783	1.17381
	1397.48	0.74291	0.861922
	1399.38	0.32939	0.573925
	1401.28	-0.185744	0.43098
	1403.18	-0.214866	0.463537
	1405.08	-0.105979	0.325544
	1406.98	0.0778478	0.279012
	1408.89	-0.076844	0.277208
	1410.79	-0.350709	0.592207
	1412.69	-0.563964	0.750975
	1414.59	-0.291698	0.540091
	1416.49	-0.276505	0.525838
	1418.39	-0.473126	0.687842
	1420.29	-0.511507	0.715197
	1422.19	-0.473625	0.688204
	1424.09	-0.22962	0.479187
	1425.99	-0.155877	0.394813
	1427.89	-0.251415	0.501413
	1429.79	0.201815	0.449239
	1431.69	0.676379	0.822423
	1433.59	1.51442	1.23062
	1435.49	1.9582	1.39936
	1437.39	2.29267	1.51416
	1439.29	2.50119	1.58151
	1441.19	3.01682	1.7369
	1443.09	4.00373	2.00093
	1444.99	4.78321	2.18706
	1446.89	5.01058	2.23843
	1448.79	5.18983	2.27812
	1450.69	5.27581	2.29691
	1452.59	5.89142	2.42723
	1454.49	6.30255	2.51049
	1456.39	7.09731	2.66408
	1458.29	7.41839	2.72367
	1460.19	7.42877	2.72558
	1462.09	7.12711	2.66967
	1463.99	6.95602	2.63743
	1465.89	6.54983	2.55926
	1467.8	6.21671	2.49333
	1469.7	5.97164	2.44369
	1471.6	5.47761	2.34043
	1473.5	4.94211	2.22308
	1475.4	3.95042	1.98757
	1477.3	3.29095	1.8141
	1479.2	2.66604	1.6328
	1481.1	2.34367	1.53091
	1483	1.74676	1.32165
	1484.9	1.2575	1.12138
	1486.8	1.1851	1.08862
	1488.7	0.95302	0.976228
	1490.6	1.29135	1.13638
	1492.5	1.13838	1.06695
	1494.4	0.993262	0.996625
	1496.3	0.731742	0.855419
	1498.2	0.510392	0.714418
	1500.1	0.0618627	0.248722
	1502	-0.264292	0.514094
	1503.9	-0.246775	0.496765
	1505.8	0.172027	0.414761
	1507.7	0.325891	0.570869
	1509.6	0.207346	0.455352
	1511.5	-0.306271	0.553417
	1513.4	-0.389069	0.623754
	1515.3	-0.48661	0.697575
	1517.2	-0.323625	0.56888
	1519.1	-0.144289	0.379854
	1521	0.0680354	0.260836
	1522.9	0.611905	0.782243
	1524.81	0.452426	0.672626
	1526.71	0.31455	0.560848
	1528.61	0.319017	0.564816
	1530.51	0.632775	0.795472
	1532.41	0.786477	0.886836
	1534.31	0.685436	0.827911
	1536.21	0.394296	0.62793
	1538.11	0.3684	0.60696
	1540.01	0.198182	0.445176
	1541.91	0.492357	0.701681
	1543.81	0.454768	0.674365
	1545.71	0.63164	0.794758
	1547.61	0.256859	0.506813
	1549.51	0.477905	0.691307
	1551.41	0.921714	0.960059
	1553.31	1.18868	1.09026
	1555.21	0.777462	0.881738
	1557.11	0.489146	0.69939
	1559.01	0.341715	0.584564
	1560.91	0.475747	0.689744
	1562.81	0.815873	0.903257
	1564.71	1.24008	1.11359
	1566.61	1.18488	1.08852
	1568.51	1.09278	1.04536
	1570.41	1.0281	1.01395
	1572.31	1.07138	1.03507
	1574.21	0.789779	0.888695
	1576.11	0.826379	0.909054
	1578.01	0.815661	0.903139
	1579.91	0.718007	0.847353
	1581.81	0.65762	0.810938
	1583.72	0.571464	0.755952
	1585.62	0.34558	0.58786
	1587.52	0.130989	0.361925
	1589.42	0.146961	0.383355
	1591.32	0.19358	0.439977
	1593.22	0.266798	0.516525
	1595.12	0.456888	0.675935
	1597.02	0.102229	0.319732
	1598.92	-0.196912	0.443747
	1600.82	-0.204203	0.451888
	1602.72	0.083544	0.28904
	1604.62	0.303611	0.551009
	1606.52	0.178863	0.422921
	1608.42	-0.0395182	0.198792
	1610.32	-0.141688	0.376415
	1612.22	0.0933174	0.305479
	1614.12	0.05571	0.23603
	1616.02	0.482624	0.694711
	1617.92	0.647829	0.804878
	1619.82	0.807669	0.898704
	1621.72	0.72624	0.852197
	1623.62	0.445582	0.667519
	1625.52	0.680176	0.824728
	1627.42	0.780237	0.88331
	1629.32	1.3321	1.15417
	1631.22	1.78232	1.33504
	1633.12	2.20492	1.4849
	1635.02	2.55325	1.59789
	1636.92	3.10757	1.76283
	1638.82	3.59189	1.89523
	1640.73	3.95823	1.98953
	1642.63	4.62382	2.15031
	1644.53	5.43389	2.33107
	1646.43	6.64269	2.57734
	1648.33	7.84911	2.80163
	1650.23	8.96436	2.99405
	1652.13	10.0754	3.17418
	1654.03	11.8282	3.43922
