Generated file C:/Users/didvk/Downloads/Dioptas_Win64_0.5.0/1_mask&dat&fxye_1position/27_ReMoB2_1080psi_noRuby_S_P1_C1_D1w_169.fxye using DIOPTAS
# == pyFAI calibration ==
# Distance Sample to Detector: 0.21643023575112377 m
# PONI: 8.848e-02, 8.638e-02 m
# Rotations: 0.008179 -0.001145 -0.000000 rad
# 
# == Fit2d calibration ==
# Distance Sample-beamCenter: 216.438 mm
# Center: x=491.896, y=512.970 pix
# Tilt: 0.473 deg  TiltPlanRot: -172.032 deg
# 
# Detector Pilatus CdTe 1M	 PixelSize= 1.720e-04, 1.720e-04 m
#    Detector has a mask: True 
#    Detector has a dark current: False 
#    detector has a flat field: False 
# 
# Wavelength: 4.133e-11 m
# Mask applied: None
# Dark current applied: None
# Flat field applied: None
# Polarization factor: None
# Normalization factor: None
BANK	1	1006	1006 CONS	293.393	1.90033 0.4133 0.0 FXYE
	293.393	0.490529	0.700378
	295.294	-0.0480644	0.219236
	297.194	0.381262	0.617464
	299.094	0.927933	0.963293
	300.995	1.24573	1.11612
	302.895	1.68203	1.29693
	304.795	1.79832	1.34101
	306.696	1.34314	1.15894
	308.596	1.11059	1.05385
	310.496	0.741288	0.860981
	312.397	0.258397	0.508328
	314.297	-0.16063	0.400786
	316.197	0.0518621	0.227732
	318.098	1.01467	1.00731
	319.998	1.32072	1.14922
	321.898	1.66784	1.29145
	323.799	1.23275	1.11029
	325.699	1.21051	1.10023
	327.599	1.14433	1.06974
	329.5	1.08967	1.04387
	331.4	1.39731	1.18208
	333.3	1.48961	1.2205
	335.201	1.42009	1.19168
	337.101	1.62072	1.27308
	339.001	1.32742	1.15214
	340.902	1.37686	1.1734
	342.802	1.02741	1.01361
	344.702	0.700595	0.837016
	346.603	0.747023	0.864305
	348.503	1.41697	1.19037
	350.403	1.75196	1.32362
	352.304	1.68602	1.29847
	354.204	1.70092	1.3042
	356.104	2.44447	1.56348
	358.005	4.21445	2.05291
	359.905	6.42492	2.53474
	361.805	9.26838	3.0444
	363.706	10.4266	3.22902
	365.606	10.5643	3.25028
	367.506	9.02838	3.00473
	369.407	7.42917	2.72565
	371.307	6.15111	2.48014
	373.207	5.47143	2.33911
	375.108	4.89856	2.21327
	377.008	3.57411	1.89053
	378.908	2.3166	1.52204
	380.808	1.23282	1.11033
	382.709	1.20648	1.0984
	384.609	0.985835	0.992892
	386.509	0.888929	0.94283
	388.41	0.284726	0.533597
	390.31	0.0134546	0.115994
	392.21	0.0423312	0.205745
	394.111	0.285588	0.534404
	396.011	0.722055	0.849738
	397.911	1.05738	1.02829
	399.812	1.43137	1.1964
	401.712	1.05113	1.02525
	403.612	1.27713	1.1301
	405.513	1.19074	1.09121
	407.413	1.45667	1.20693
	409.313	0.806035	0.897794
	411.214	0.196413	0.443185
	413.114	0.311212	0.557864
	415.014	0.359017	0.59918
	416.915	-0.00106552	0.0326423
	418.815	0.178445	0.422427
	420.715	-0.0581016	0.241043
	422.616	0.185109	0.430243
	424.516	0.324866	0.56997
	426.416	0.478938	0.692053
	428.317	0.341	0.583952
	430.217	0.00117219	0.0342372
	432.117	0.136317	0.369211
	434.018	0.470233	0.685735
	435.918	1.02466	1.01226
	437.818	1.32298	1.15021
	439.719	0.986071	0.993011
	441.619	0.105276	0.324463
	443.519	0.28105	0.530142
	445.42	0.672825	0.820259
	447.32	1.23915	1.11317
	449.22	1.00045	1.00022
	451.121	0.42394	0.651107
	453.021	0.162554	0.40318
	454.921	0.256797	0.506752
	456.822	0.666404	0.816336
	458.722	0.765419	0.874882
	460.622	0.472891	0.68767
	462.523	-0.0220152	0.148375
	464.423	-0.0432181	0.20789
	466.323	0.732492	0.855857
	468.224	1.11984	1.05822
	470.124	0.948791	0.974059
	472.024	0.463632	0.680905
	473.924	0.386422	0.621628
	475.825	0.328985	0.573572
	477.725	1.05987	1.0295
	479.625	1.26865	1.12635
	481.526	0.940102	0.969588
	483.426	0.430019	0.655758
	485.326	0.605763	0.778308
	487.227	0.855528	0.924947
	489.127	0.709519	0.84233
	491.027	0.905376	0.951513
	492.928	0.875463	0.935662
	494.828	1.15526	1.07483
	496.728	0.69082	0.831156
	498.629	0.533285	0.730263
	500.529	0.13628	0.369162
	502.429	0.369044	0.60749
	504.33	0.0295746	0.171973
	506.23	-0.14579	0.381825
	508.13	0.0222781	0.149259
	510.031	0.626541	0.791543
	511.931	0.733387	0.85638
	513.831	0.795433	0.891871
	515.732	0.584402	0.764462
	517.632	0.345638	0.58791
	519.532	-0.279313	0.528501
	521.433	-0.159146	0.398931
	523.333	0.269167	0.518813
	525.233	0.596851	0.772561
	527.134	0.564012	0.751007
	529.034	0.334445	0.578312
	530.934	0.670814	0.819032
	532.835	0.578832	0.76081
	534.735	0.463574	0.680863
	536.635	0.435888	0.660218
	538.536	0.50416	0.710042
	540.436	0.365047	0.604191
	542.336	0.126806	0.356099
	544.237	0.637472	0.798418
	546.137	0.969535	0.984649
	548.037	1.34637	1.16033
	549.938	1.33197	1.15411
	551.838	1.49475	1.2226
	553.738	1.28547	1.13379
	555.639	1.0992	1.04843
	557.539	0.94948	0.974413
	559.439	0.646009	0.803747
	561.34	0.522365	0.722749
	563.24	0.441356	0.664346
	565.14	0.278623	0.527848
	567.041	-0.0155158	0.124562
	568.941	-0.206511	0.454435
	570.841	-0.0885138	0.297513
	572.741	0.0929482	0.304874
	574.642	-0.0714216	0.267248
	576.542	0.147597	0.384184
	578.442	0.161117	0.401394
	580.343	0.377262	0.614216
	582.243	0.657844	0.811076
	584.143	0.720336	0.848726
	586.044	0.533762	0.73059
	587.944	0.304391	0.551716
	589.844	0.16472	0.405857
	591.745	0.157405	0.396742
	593.645	0.190308	0.436243
	595.545	0.831939	0.912107
	597.446	1.61117	1.26932
	599.346	1.82158	1.34966
	601.246	1.48327	1.2179
	603.147	1.21838	1.1038
	605.047	1.30203	1.14107
	606.947	1.59256	1.26197
	608.848	1.68948	1.2998
	610.748	1.70472	1.30565
	612.648	1.43412	1.19755
	614.549	1.41299	1.18869
	616.449	1.06535	1.03216
	618.349	0.527951	0.726602
	620.25	0.325126	0.570198
	622.15	0.364889	0.60406
	624.05	0.313811	0.560188
	625.951	0.146041	0.382153
	627.851	0.657041	0.810581
	629.751	0.634933	0.796827
	631.652	0.644186	0.802612
	633.552	0.517492	0.719369
	635.452	0.593923	0.770664
	637.353	0.852186	0.923139
	639.253	0.221385	0.470516
	641.153	-0.159229	0.399035
	643.054	-0.0453479	0.21295
	644.954	0.427974	0.654197
	646.854	0.482475	0.694605
	648.755	0.211505	0.459897
	650.655	0.296449	0.544471
	652.555	0.393687	0.627445
	654.456	0.62631	0.791397
	656.356	0.726354	0.852264
	658.256	0.971508	0.985651
	660.157	1.30798	1.14367
	662.057	1.91432	1.38359
	663.957	2.8797	1.69697
	665.857	4.10572	2.02626
	667.758	5.58941	2.36419
	669.658	6.33793	2.51753
	671.558	6.26948	2.50389
	673.459	4.77748	2.18574
	675.359	3.13613	1.77091
	677.259	1.76985	1.33036
	679.16	1.03854	1.01909
	681.06	0.570675	0.75543
	682.96	0.445555	0.667499
	684.861	0.176535	0.420161
	686.761	0.381789	0.617891
	688.661	-0.243856	0.493818
	690.562	0.0403223	0.200804
	692.462	-0.000560071	0.0236658
	694.362	0.493704	0.702641
	696.263	0.376332	0.613459
	698.163	0.73765	0.858866
	700.063	1.03136	1.01556
	701.964	1.8866	1.37353
	703.864	3.40715	1.84585
	705.764	4.94349	2.2234
	707.665	6.89156	2.62518
	709.565	8.89357	2.98221
	711.465	10.47	3.23574
	713.366	11.843	3.44136
	715.266	13.0481	3.61222
	717.166	15.0513	3.8796
	719.067	16.3732	4.04639
	720.967	18.8308	4.33944
	722.867	22.1364	4.70494
	724.768	27.0648	5.20238
	726.668	33.6926	5.80454
	728.568	39.1869	6.25995
	730.469	44.3019	6.65596
	732.369	45.8691	6.77268
	734.269	44.2704	6.6536
	736.17	39.3714	6.27467
	738.07	35.2079	5.93363
	739.97	29.891	5.46727
	741.871	25.3331	5.0332
	743.771	21.1378	4.59758
	745.671	17.9085	4.23184
	747.572	15.6383	3.95453
	749.472	14.1428	3.76069
	751.372	12.7599	3.5721
	753.273	11.388	3.37462
	755.173	10.1509	3.18605
	757.073	9.26347	3.0436
	758.973	8.42302	2.90224
	760.874	7.26226	2.69486
	762.774	6.65736	2.58019
	764.674	6.28146	2.50628
	766.575	6.05367	2.46042
	768.475	5.94613	2.43847
	770.375	5.66387	2.37989
	772.276	5.75039	2.398
	774.176	5.6005	2.36654
	776.076	5.54501	2.35478
	777.977	4.98443	2.23258
	779.877	4.99598	2.23517
	781.777	5.17664	2.27522
	783.678	5.12002	2.26275
	785.578	4.78766	2.18807
	787.478	4.21569	2.05322
	789.379	3.20592	1.79051
	791.279	3.09991	1.76066
	793.179	2.92547	1.7104
	795.08	3.12261	1.76709
	796.98	3.28418	1.81223
	798.88	3.47102	1.86307
	800.781	3.11224	1.76416
	802.681	2.68591	1.63888
	804.581	1.93388	1.39064
	806.482	1.72482	1.31332
	808.382	1.42778	1.1949
	810.282	1.36514	1.16839
	812.183	1.19411	1.09275
	814.083	1.08335	1.04084
	815.983	0.833902	0.913182
	817.884	0.44348	0.665943
	819.784	0.326045	0.571003
	821.684	0.0485244	0.220282
	823.585	0.0471788	0.217207
	825.485	0.222142	0.47132
	827.385	0.305544	0.552761
	829.286	0.572418	0.756583
	831.186	0.312915	0.559388
	833.086	0.0133072	0.115357
	834.987	0.136153	0.368989
	836.887	0.139357	0.373306
	838.787	0.368659	0.607173
	840.688	-0.0318019	0.178331
	842.588	0.182018	0.426635
	844.488	0.059108	0.243121
	846.389	0.173731	0.41681
	848.289	0.248419	0.498416
	850.189	0.312348	0.558881
	852.089	0.499157	0.70651
	853.99	0.605708	0.778272
	855.89	0.727754	0.853085
	857.79	0.419804	0.647923
	859.691	-0.0445942	0.211173
	861.591	-0.239672	0.489563
	863.491	-0.0634392	0.251871
	865.392	0.544422	0.73785
	867.292	0.43985	0.663212
	869.192	0.138172	0.371715
	871.093	-0.0851534	0.291811
	872.993	0.119819	0.346149
	874.893	0.151953	0.389811
	876.794	0.126292	0.355375
	878.694	-0.0372838	0.19309
	880.594	-0.00484944	0.0696379
	882.495	-0.141582	0.376274
	884.395	-0.425593	0.652375
	886.295	-0.181125	0.425587
	888.196	0.00831279	0.0911745
	890.096	-0.0617471	0.24849
	891.996	-0.335259	0.579016
	893.897	-0.452971	0.673031
	895.797	-0.168666	0.41069
	897.697	-0.0267771	0.163637
	899.598	0.0979761	0.313011
	901.498	0.23879	0.488661
	903.398	0.302355	0.549868
	905.299	0.288935	0.537527
	907.199	0.26733	0.517039
	909.099	0.00318335	0.0564211
	911	-0.0161388	0.127039
	912.9	-0.212579	0.461062
	914.8	0.0305533	0.174795
	916.701	0.414889	0.644119
	918.601	0.438291	0.662035
	920.501	0.536242	0.732285
	922.402	0.651317	0.807042
	924.302	1.19571	1.09349
	926.202	1.71566	1.30983
	928.103	2.0195	1.42109
	930.003	2.43338	1.55993
	931.903	3.19142	1.78646
	933.804	4.36497	2.08925
	935.704	5.56775	2.35961
	937.604	7.00514	2.64672
	939.505	8.42915	2.9033
	941.405	10.2559	3.20249
	943.305	12.7068	3.56466
	945.206	15.899	3.98736
	947.106	19.7049	4.43902
	949.006	24.3077	4.93028
	950.906	30.9557	5.56378
	952.807	39.3493	6.2729
	954.707	51.3974	7.1692
	956.607	67.1943	8.19721
	958.508	88.2125	9.39215
	960.408	115.255	10.7357
	962.308	148.365	12.1805
	964.209	187.538	13.6944
	966.109	226.265	15.0421
	968.009	261.318	16.1653
	969.91	284.734	16.8741
	971.81	296.857	17.2295
	973.71	297.001	17.2337
	975.611	289.28	17.0082
	977.511	274.015	16.5534
	979.411	255.323	15.9788
	981.312	237.176	15.4005
	983.212	219.887	14.8286
	985.112	204.164	14.2886
	987.013	189.576	13.7686
	988.913	177.057	13.3063
	990.813	165.145	12.8509
	992.714	152.051	12.3309
	994.614	139.706	11.8197
	996.514	127.37	11.2858
	998.415	116.714	10.8034
	1000.31	105.186	10.256
	1002.22	97.2878	9.86346
	1004.12	89.7775	9.4751
	1006.02	84.1007	9.17064
	1007.92	79.5325	8.9181
	1009.82	75.1175	8.66704
	1011.72	71.4162	8.45081
	1013.62	67.9613	8.24386
	1015.52	64.8592	8.05352
	1017.42	61.0937	7.81624
	1019.32	57.4898	7.5822
	1021.22	53.9208	7.34308
	1023.12	49.9783	7.06954
	1025.02	45.7408	6.76319
	1026.92	41.2884	6.42561
	1028.82	36.9446	6.07821
	1030.72	33.4172	5.78076
	1032.62	29.9839	5.47575
	1034.52	26.5556	5.15321
	1036.42	23.246	4.82141
	1038.32	20.7892	4.55951
	1040.22	18.1676	4.26234
	1042.12	15.4934	3.93616
	1044.02	12.9507	3.5987
	1045.92	11.0047	3.31734
	1047.82	9.23013	3.03811
	1049.72	7.68841	2.7728
	1051.62	6.12021	2.47391
	1053.52	4.6735	2.16183
	1055.42	3.45483	1.85872
	1057.32	2.62392	1.61985
	1059.23	1.55421	1.24668
	1061.13	0.651566	0.807196
	1063.03	0.0579168	0.240659
	1064.93	-0.212133	0.46058
	1066.83	-0.583904	0.764136
	1068.73	-0.94412	0.971659
	1070.63	-1.08313	1.04073
	1072.53	-0.870604	0.933062
	1074.43	-0.700343	0.836865
	1076.33	-0.293228	0.541505
	1078.23	0.831544	0.91189
	1080.13	1.91121	1.38247
	1082.03	2.87031	1.6942
	1083.93	3.92877	1.98211
	1085.83	4.95133	2.22516
	1087.73	6.15333	2.48059
	1089.63	6.46903	2.54343
	1091.53	6.96558	2.63924
	1093.43	6.99478	2.64477
	1095.33	6.64362	2.57752
	1097.23	6.11268	2.47238
	1099.13	5.07015	2.2517
	1101.03	4.14384	2.03564
	1102.93	3.32483	1.82341
	1104.83	2.58573	1.60802
	1106.73	1.78402	1.33567
	1108.63	1.28065	1.13166
	1110.53	0.802101	0.895601
	1112.43	0.660191	0.812521
	1114.33	0.508811	0.71331
	1116.23	0.24716	0.497152
	1118.14	0.106821	0.326834
	1120.04	-0.0776457	0.27865
	1121.94	0.467572	0.683792
	1123.84	0.914257	0.956168
	1125.74	1.35882	1.16568
	1127.64	1.60115	1.26536
	1129.54	1.63449	1.27847
	1131.44	1.51903	1.23249
	1133.34	1.58395	1.25855
	1135.24	1.50872	1.2283
	1137.14	1.292	1.13666
	1139.04	1.03621	1.01794
	1140.94	1.10196	1.04974
	1142.84	1.48845	1.22002
	1144.74	1.6152	1.27091
	1146.64	1.38805	1.17816
	1148.54	1.19893	1.09496
	1150.44	1.47028	1.21255
	1152.34	1.59987	1.26486
	1154.24	1.60072	1.26519
	1156.14	1.48418	1.21827
	1158.04	1.5118	1.22955
	1159.94	1.23366	1.1107
	1161.84	1.13909	1.06728
	1163.74	1.0766	1.0376
	1165.64	1.0309	1.01533
	1167.54	0.896047	0.946598
	1169.44	1.10459	1.05099
	1171.34	0.981401	0.990657
	1173.24	0.936639	0.967801
	1175.15	0.931624	0.965206
	1177.05	0.897017	0.94711
	1178.95	0.618818	0.78665
	1180.85	0.634244	0.796395
	1182.75	0.980865	0.990386
	1184.65	0.728127	0.853304
	1186.55	0.179905	0.424152
	1188.45	-0.361538	0.601281
	1190.35	-0.435846	0.660186
	1192.25	-0.546211	0.739061
	1194.15	-0.527204	0.726088
	1196.05	-0.327943	0.572663
	1197.95	-0.472451	0.687351
	1199.85	-0.419365	0.647584
	1201.75	-0.373676	0.611291
	1203.65	-0.207486	0.455507
	1205.55	-0.204763	0.452508
	1207.45	-0.0768431	0.277206
	1209.35	-0.227355	0.476817
	1211.25	-0.309061	0.555932
	1213.15	0.0959352	0.309734
	1215.05	0.462331	0.679949
	1216.95	0.755827	0.869383
	1218.85	1.0031	1.00155
	1220.75	1.87915	1.37082
	1222.65	2.74985	1.65827
	1224.55	3.68113	1.91863
	1226.45	4.68571	2.16465
	1228.35	5.55003	2.35585
	1230.25	6.774	2.60269
	1232.15	8.21306	2.86584
	1234.06	9.97676	3.1586
	1235.96	11.9797	3.46117
	1237.86	14.4147	3.79666
	1239.76	17.3814	4.1691
	1241.66	21.1705	4.60114
	1243.56	25.65	5.06458
	1245.46	31.3509	5.59919
	1247.36	38.8568	6.23352
	1249.26	48.3893	6.95624
	1251.16	61.7501	7.85812
	1253.06	77.2058	8.78668
	1254.96	97.6312	9.88085
	1256.86	124.157	11.1426
	1258.76	155.753	12.4801
	1260.66	196.125	14.0045
	1262.56	242.653	15.5773
	1264.46	296.967	17.2327
	1266.36	356.254	18.8747
	1268.26	412.861	20.319
	1270.16	464.485	21.5519
	1272.06	501.667	22.3979
	1273.96	525.62	22.9264
	1275.86	532.657	23.0794
	1277.76	527.497	22.9673
	1279.66	506.834	22.513
	1281.56	478.365	21.8715
	1283.46	438.599	20.9427
	1285.36	391.788	19.7936
	1287.26	342.73	18.513
	1289.16	293.237	17.1242
	1291.06	242.859	15.5839
	1292.97	199.006	14.107
	1294.87	158.86	12.604
	1296.77	126.437	11.2444
	1298.67	100.64	10.0319
	1300.57	80.509	8.97268
	1302.47	66.3886	8.14792
	1304.37	54.9575	7.41333
	1306.27	47.2173	6.87148
	1308.17	40.8279	6.38967
	1310.07	35.6962	5.97463
	1311.97	30.963	5.56444
	1313.87	27.232	5.21843
	1315.77	24.4358	4.94326
	1317.67	22.0502	4.69576
	1319.57	20.1706	4.49117
	1321.47	18.4626	4.29681
	1323.37	16.7799	4.09633
	1325.27	14.7367	3.83884
	1327.17	13.0954	3.61875
	1329.07	12.0201	3.46701
	1330.97	11.0252	3.32042
	1332.87	10.2398	3.19996
	1334.77	9.10445	3.01736
	1336.67	8.01317	2.83075
	1338.57	7.02	2.64953
	1340.47	6.05048	2.45977
	1342.37	5.3707	2.31748
	1344.27	4.9726	2.22993
	1346.17	4.37681	2.09208
	1348.07	3.82737	1.95637
	1349.98	3.34058	1.82773
	1351.88	3.25154	1.8032
	1353.78	2.70137	1.64358
	1355.68	2.05385	1.43313
	1357.58	1.47231	1.21339
	1359.48	1.35077	1.16223
	1361.38	1.2679	1.12601
	1363.28	1.14508	1.07008
	1365.18	0.94917	0.974253
	1367.08	1.04169	1.02063
	1368.98	1.08225	1.04031
	1370.88	1.08333	1.04083
	1372.78	0.77039	0.877719
	1374.68	0.786438	0.886814
	1376.58	0.895139	0.946118
	1378.48	1.30083	1.14054
	1380.38	1.57325	1.25429
	1382.28	1.69262	1.30101
	1384.18	1.71356	1.30903
	1386.08	1.45447	1.20601
	1387.98	1.31277	1.14576
	1389.88	1.05607	1.02765
	1391.78	1.12298	1.05971
	1393.68	1.11093	1.05401
	1395.58	1.18487	1.08852
	1397.48	0.90736	0.952554
	1399.38	0.781081	0.883788
	1401.28	0.589063	0.767504
	1403.18	0.547997	0.740268
	1405.08	0.511939	0.715499
	1406.98	0.384272	0.619897
	1408.89	0.0809924	0.284592
	1410.79	-0.0465887	0.215844
	1412.69	0.0170543	0.130592
	1414.59	0.292773	0.541085
	1416.49	-0.00936988	0.0967981
	1418.39	-0.230745	0.480359
	1420.29	-0.705362	0.839858
	1422.19	-0.570097	0.755047
	1424.09	-0.404366	0.635898
	1425.99	-0.452219	0.672473
	1427.89	-0.439967	0.6633
	1429.79	-0.302707	0.550188
	1431.69	0.00308071	0.0555041
	1433.59	0.339792	0.582916
	1435.49	0.856043	0.925226
	1437.39	1.00851	1.00425
	1439.29	1.02453	1.01219
	1441.19	1.28565	1.13387
	1443.09	2.06439	1.4368
	1444.99	2.88857	1.69958
	1446.89	3.19363	1.78707
	1448.79	3.61668	1.90176
	1450.69	4.16127	2.03992
	1452.59	5.14988	2.26934
	1454.49	5.62356	2.37141
	1456.39	5.83052	2.41465
	1458.29	6.11344	2.47254
	1460.19	6.33326	2.5166
	1462.09	6.64481	2.57775
	1463.99	7.00716	2.6471
	1465.89	7.01583	2.64874
	1467.8	7.12963	2.67014
	1469.7	7.21443	2.68597
	1471.6	7.06175	2.6574
	1473.5	6.7705	2.60202
	1475.4	6.05707	2.46111
	1477.3	5.47885	2.34069
	1479.2	5.13122	2.26522
	1481.1	4.66709	2.16035
	1483	4.42959	2.10466
	1484.9	3.56911	1.88921
	1486.8	3.60398	1.89842
	1488.7	3.33646	1.8266
	1490.6	3.26956	1.80819
	1492.5	2.78411	1.66857
	1494.4	2.34142	1.53017
	1496.3	1.59364	1.26239
	1498.2	1.08488	1.04158
	1500.1	0.823692	0.907575
	1502	0.594923	0.771312
	1503.9	0.572295	0.756502
	1505.8	0.742659	0.861776
	1507.7	0.720585	0.848873
	1509.6	0.410628	0.640803
	1511.5	0.41866	0.64704
	1513.4	0.32131	0.566842
	1515.3	0.531108	0.728771
	1517.2	0.0571215	0.239001
	1519.1	-0.0473468	0.217593
	1521	-0.100761	0.317428
	1522.9	0.12395	0.352066
	1524.81	0.0424594	0.206057
	1526.71	-0.250675	0.500675
	1528.61	-0.143597	0.378943
	1530.51	-0.105496	0.324802
	1532.41	0.0635823	0.252155
	1534.31	0.0546966	0.233873
	1536.21	-0.0198879	0.141025
	1538.11	-0.171466	0.414085
	1540.01	-0.0201974	0.142118
	1541.91	0.154041	0.392481
	1543.81	0.0128357	0.113295
	1545.71	-0.0182824	0.135212
	1547.61	0.233625	0.483348
	1549.51	0.212174	0.460623
	1551.41	0.411749	0.641677
	1553.31	0.379812	0.616289
	1555.21	0.463526	0.680827
	1557.11	0.511038	0.714869
	1559.01	0.72344	0.850553
	1560.91	0.740536	0.860544
	1562.81	0.775927	0.880867
	1564.71	0.64102	0.800637
	1566.61	0.560693	0.748794
	1568.51	0.509588	0.713855
	1570.41	0.596907	0.772598
	1572.31	0.577942	0.760225
	1574.21	0.612196	0.782429
	1576.11	0.600538	0.774944
	1578.01	0.690008	0.830667
	1579.91	0.908734	0.953276
	1581.81	1.12131	1.05892
	1583.72	1.08678	1.04249
	1585.62	0.854276	0.924271
	1587.52	0.749347	0.865648
	1589.42	0.931454	0.965119
	1591.32	0.835206	0.913896
	1593.22	0.914715	0.956407
	1595.12	1.02877	1.01428
	1597.02	1.0918	1.04489
	1598.92	0.646973	0.804347
	1600.82	0.690333	0.830863
	1602.72	0.555632	0.745407
	1604.62	0.707579	0.841177
	1606.52	0.366703	0.60556
	1608.42	0.391073	0.625359
	1610.32	-0.0108487	0.104157
	1612.22	-0.199237	0.44636
	1614.12	0.00102679	0.0320436
	1616.02	0.0961769	0.310124
	1617.92	-0.155632	0.394502
	1619.82	-0.120651	0.347349
	1621.72	0.123455	0.351362
	1623.62	0.0242471	0.155715
	1625.52	0.025147	0.158578
	1627.42	0.0256945	0.160295
	1629.32	0.1474	0.383928
	1631.22	0.309447	0.55628
	1633.12	0.498174	0.705814
	1635.02	0.610877	0.781586
	1636.92	0.670575	0.818886
	1638.82	0.591747	0.769251
	1640.73	0.799592	0.894199
	1642.63	1.39584	1.18146
	1644.53	1.96239	1.40085
	1646.43	2.36971	1.53939
