Generated file C:/Users/didvk/Downloads/Dioptas_Win64_0.5.0/1_mask&dat&fxye_1position/29_RuMoB2_915psi_noRuby_S_P1_C1_D1w_181.fxye using DIOPTAS
# == pyFAI calibration ==
# Distance Sample to Detector: 0.21643023575112377 m
# PONI: 8.848e-02, 8.638e-02 m
# Rotations: 0.008179 -0.001145 -0.000000 rad
# 
# == Fit2d calibration ==
# Distance Sample-beamCenter: 216.438 mm
# Center: x=491.896, y=512.970 pix
# Tilt: 0.473 deg  TiltPlanRot: -172.032 deg
# 
# Detector Pilatus CdTe 1M	 PixelSize= 1.720e-04, 1.720e-04 m
#    Detector has a mask: True 
#    Detector has a dark current: False 
#    detector has a flat field: False 
# 
# Wavelength: 4.133e-11 m
# Mask applied: None
# Dark current applied: None
# Flat field applied: None
# Polarization factor: None
# Normalization factor: None
BANK	1	1006	1006 CONS	293.393	1.90033 0.4133 0.0 FXYE
	293.393	0.415315	0.644449
	295.294	0.111896	0.334508
	297.194	0.594944	0.771326
	299.094	1.33503	1.15543
	300.995	1.51221	1.22972
	302.895	1.58929	1.26067
	304.795	1.41328	1.18882
	306.696	1.11851	1.0576
	308.596	0.88244	0.939383
	310.496	1.09258	1.04527
	312.397	0.831977	0.912128
	314.297	1.084	1.04115
	316.197	0.725818	0.851949
	318.098	1.50876	1.22832
	319.998	1.54241	1.24194
	321.898	1.51435	1.23059
	323.799	1.80765	1.34449
	325.699	2.52203	1.58809
	327.599	2.79472	1.67174
	329.5	2.21558	1.48848
	331.4	2.0008	1.4145
	333.3	1.75862	1.32613
	335.201	1.33735	1.15644
	337.101	1.02559	1.01271
	339.001	0.568186	0.753781
	340.902	0.545302	0.738445
	342.802	0.88972	0.94325
	344.702	0.941999	0.970566
	346.603	0.899783	0.948569
	348.503	0.801891	0.895483
	350.403	1.26707	1.12564
	352.304	1.46466	1.21023
	354.204	1.80197	1.34237
	356.104	1.87563	1.36954
	358.005	2.42114	1.556
	359.905	3.24282	1.80078
	361.805	4.81761	2.19491
	363.706	6.07414	2.46458
	365.606	7.60204	2.75718
	367.506	7.33088	2.70756
	369.407	6.8431	2.61593
	371.307	5.75987	2.39997
	373.207	5.23143	2.28723
	375.108	4.35303	2.08639
	377.008	3.20449	1.79011
	378.908	2.5897	1.60925
	380.808	1.71454	1.30941
	382.709	1.05334	1.02633
	384.609	0.451531	0.67196
	386.509	0.450355	0.671085
	388.41	0.533591	0.730473
	390.31	0.937406	0.968197
	392.21	1.0868	1.0425
	394.111	0.990034	0.995005
	396.011	1.01914	1.00952
	397.911	0.88506	0.940776
	399.812	0.846355	0.919975
	401.712	0.581811	0.762765
	403.612	0.285268	0.534105
	405.513	0.257211	0.50716
	407.413	0.48846	0.698899
	409.313	0.869965	0.932719
	411.214	1.11491	1.05589
	413.114	0.846927	0.920286
	415.014	0.791732	0.889793
	416.915	0.934098	0.966487
	418.815	0.874954	0.93539
	420.715	0.970476	0.985128
	422.616	1.11023	1.05367
	424.516	1.16154	1.07775
	426.416	0.768451	0.876614
	428.317	0.227757	0.477239
	430.217	-0.00360568	0.0600473
	432.117	0.0577347	0.24028
	434.018	0.175032	0.418369
	435.918	0.607739	0.779576
	437.818	0.962921	0.981285
	439.719	0.505912	0.711275
	441.619	0.468085	0.684167
	443.519	-0.181549	0.426085
	445.42	0.281066	0.530156
	447.32	0.262195	0.51205
	449.22	0.715951	0.846139
	451.121	0.55291	0.743579
	453.021	0.50097	0.707793
	454.921	0.631835	0.794881
	456.822	0.549309	0.741154
	458.722	0.424732	0.651715
	460.622	0.35311	0.594231
	462.523	0.45941	0.677798
	464.423	0.734935	0.857283
	466.323	0.179244	0.423372
	468.224	-0.00898	0.0947629
	470.124	-0.267559	0.517261
	472.024	0.130207	0.360842
	473.924	1.08731	1.04274
	475.825	1.35563	1.16431
	477.725	1.54602	1.24339
	479.625	1.07273	1.03573
	481.526	0.675899	0.822131
	483.426	0.478555	0.691777
	485.326	0.255017	0.504992
	487.227	0.276392	0.52573
	489.127	0.337859	0.581257
	491.027	0.910315	0.954104
	492.928	1.00507	1.00253
	494.828	0.165159	0.406397
	496.728	0.11331	0.336616
	498.629	0.461479	0.679323
	500.529	0.69124	0.831408
	502.429	0.372799	0.610573
	504.33	0.197998	0.444969
	506.23	0.254456	0.504436
	508.13	0.398437	0.631219
	510.031	0.317862	0.563793
	511.931	0.300593	0.548263
	513.831	0.145335	0.381228
	515.732	0.157007	0.396241
	517.632	0.108688	0.329679
	519.532	0.535954	0.732089
	521.433	1.00434	1.00217
	523.333	1.03531	1.0175
	525.233	1.07342	1.03606
	527.134	0.840513	0.916795
	529.034	0.934021	0.966448
	530.934	0.92568	0.962123
	532.835	1.45355	1.20563
	534.735	1.05023	1.02481
	536.635	0.856924	0.925702
	538.536	0.413867	0.643325
	540.436	0.202933	0.450481
	542.336	0.000240743	0.0155159
	544.237	0.209889	0.458137
	546.137	0.0597749	0.244489
	548.037	0.13524	0.367749
	549.938	-0.0689868	0.262653
	551.838	0.124513	0.352863
	553.738	0.103825	0.322218
	555.639	0.349769	0.591413
	557.539	0.459788	0.678077
	559.439	0.319102	0.564891
	561.34	0.298898	0.546716
	563.24	0.117073	0.342159
	565.14	0.222412	0.471605
	567.041	0.370372	0.608582
	568.941	0.419752	0.647883
	570.841	0.219221	0.468211
	572.741	0.335917	0.579583
	574.642	0.213566	0.462132
	576.542	0.423181	0.650523
	578.442	0.85394	0.924088
	580.343	1.17723	1.085
	582.243	1.23042	1.10924
	584.143	0.961733	0.98068
	586.044	0.721308	0.849298
	587.944	0.649733	0.80606
	589.844	0.897208	0.947211
	591.745	0.903113	0.950323
	593.645	1.00019	1.00009
	595.545	1.37813	1.17394
	597.446	1.72086	1.31181
	599.346	1.61186	1.26959
	601.246	1.26866	1.12635
	603.147	1.11779	1.05726
	605.047	1.13586	1.06577
	606.947	1.13459	1.06517
	608.848	1.58416	1.25863
	610.748	2.13005	1.45947
	612.648	2.09589	1.44772
	614.549	1.42502	1.19374
	616.449	1.04979	1.02459
	618.349	0.728859	0.853732
	620.25	0.194786	0.441345
	622.15	-0.262327	0.512179
	624.05	-0.248479	0.498477
	625.951	0.271688	0.521237
	627.851	0.786712	0.886968
	629.751	1.09735	1.04754
	631.652	0.814874	0.902704
	633.552	0.827598	0.909724
	635.452	0.548647	0.740707
	637.353	0.456134	0.675377
	639.253	0.450351	0.671082
	641.153	0.433678	0.658542
	643.054	0.655872	0.809859
	644.954	0.974212	0.987022
	646.854	1.32011	1.14896
	648.755	1.32565	1.15137
	650.655	1.09718	1.04746
	652.555	0.77888	0.882542
	654.456	0.492208	0.701576
	656.356	0.463331	0.680684
	658.256	0.658445	0.811446
	660.157	0.725729	0.851897
	662.057	0.135354	0.367905
	663.957	0.271536	0.521091
	665.857	0.187151	0.432609
	667.758	0.897709	0.947475
	669.658	1.09342	1.04567
	671.558	2.07628	1.44093
	673.459	2.14102	1.46322
	675.359	2.38561	1.54454
	677.259	1.86903	1.36713
	679.16	1.23303	1.11042
	681.06	0.965405	0.98255
	682.96	0.657942	0.811136
	684.861	0.592761	0.769909
	686.761	0.353798	0.594809
	688.661	-0.337837	0.581237
	690.562	-0.266269	0.516013
	692.462	0.172025	0.414759
	694.362	0.616689	0.785296
	696.263	0.394261	0.627902
	698.163	0.101703	0.318908
	700.063	0.365344	0.604437
	701.964	0.604576	0.777545
	703.864	0.915181	0.956651
	705.764	1.45766	1.20734
	707.665	2.07974	1.44213
	709.565	2.66729	1.63318
	711.465	3.06899	1.75185
	713.366	4.08406	2.02091
	715.266	5.13822	2.26676
	717.166	6.11635	2.47313
	719.067	6.99742	2.64526
	720.967	8.5618	2.92605
	722.867	10.1363	3.18376
	724.768	12.5726	3.54578
	726.668	16.0459	4.00574
	728.568	20.4863	4.52617
	730.469	26.4606	5.14398
	732.369	31.1944	5.5852
	734.269	34.8568	5.90397
	736.17	36.7469	6.06192
	738.07	36.3757	6.03123
	739.97	32.99	5.74369
	741.871	29.4181	5.42384
	743.771	26.0737	5.10624
	745.671	22.2726	4.71939
	747.572	19.227	4.38486
	749.472	16.6976	4.08627
	751.372	15.5375	3.94176
	753.273	14.4268	3.79826
	755.173	13.6016	3.68803
	757.073	12.829	3.58176
	758.973	12.1184	3.48115
	760.874	11.1666	3.34165
	762.774	10.0299	3.167
	764.674	9.06578	3.01094
	766.575	8.69807	2.94925
	768.475	8.79487	2.96561
	770.375	9.35856	3.05918
	772.276	9.272	3.045
	774.176	9.18827	3.03122
	776.076	9.10024	3.01666
	777.977	8.88061	2.98003
	779.877	8.32879	2.88596
	781.777	7.93287	2.81654
	783.678	7.77706	2.78874
	785.578	7.67683	2.77071
	787.478	7.31927	2.70541
	789.379	6.97563	2.64114
	791.279	6.58115	2.56537
	793.179	6.2054	2.49106
	795.08	5.49637	2.34443
	796.98	4.91174	2.21625
	798.88	3.90328	1.97567
	800.781	3.34052	1.82771
	802.681	2.91088	1.70613
	804.581	2.62976	1.62165
	806.482	2.11024	1.45267
	808.382	1.65003	1.28453
	810.282	1.38576	1.17718
	812.183	1.47305	1.21369
	814.083	1.22896	1.10858
	815.983	1.16895	1.08118
	817.884	1.18144	1.08694
	819.784	1.18298	1.08765
	821.684	1.22338	1.10607
	823.585	1.23181	1.10987
	825.485	1.07989	1.03918
	827.385	0.738042	0.859094
	829.286	0.365911	0.604906
	831.186	0.247626	0.49762
	833.086	0.327851	0.572583
	834.987	0.338746	0.582019
	836.887	0.397166	0.630211
	838.787	0.442284	0.665044
	840.688	0.701612	0.837623
	842.588	0.605755	0.778303
	844.488	0.230223	0.479816
	846.389	-0.0347172	0.186325
	848.289	-0.183736	0.428644
	850.189	-0.35535	0.596112
	852.089	-0.295775	0.543852
	853.99	-0.0276284	0.166218
	855.89	0.244952	0.494926
	857.79	0.508421	0.713036
	859.691	0.661507	0.813331
	861.591	0.739591	0.859995
	863.491	0.359162	0.599302
	865.392	0.150025	0.387331
	867.292	0.191971	0.438145
	869.192	0.433267	0.65823
	871.093	0.309733	0.556537
	872.993	0.492346	0.701674
	874.893	0.167815	0.409653
	876.794	0.205714	0.453557
	878.694	0.0668769	0.258606
	880.594	-0.110143	0.331878
	882.495	-0.28523	0.53407
	884.395	-0.376523	0.613615
	886.295	-0.402094	0.634109
	888.196	0.0250557	0.15829
	890.096	0.264514	0.51431
	891.996	0.468148	0.684214
	893.897	0.290213	0.538715
	895.797	-0.0919223	0.303187
	897.697	-0.15118	0.388819
	899.598	-0.019711	0.140396
	901.498	0.281549	0.530612
	903.398	0.278415	0.527651
	905.299	-0.0242999	0.155884
	907.199	0.0285293	0.168906
	909.099	0.106979	0.327077
	911	-0.0849091	0.291392
	912.9	-0.255632	0.505601
	914.8	-0.240076	0.489975
	916.701	0.173934	0.417054
	918.601	0.505427	0.710934
	920.501	0.495023	0.703578
	922.402	0.767956	0.876331
	924.302	1.24788	1.11709
	926.202	1.68458	1.29791
	928.103	2.24771	1.49924
	930.003	2.57553	1.60485
	931.903	3.47363	1.86377
	933.804	4.15744	2.03898
	935.704	5.45754	2.33614
	937.604	6.48434	2.54644
	939.505	7.42766	2.72537
	941.405	8.51237	2.9176
	943.305	9.9178	3.14925
	945.206	12.0918	3.47733
	947.106	15.2588	3.90625
	949.006	18.445	4.29477
	950.906	22.4406	4.73715
	952.807	26.9145	5.18792
	954.707	33.991	5.83018
	956.607	41.9769	6.47896
	958.508	52.7291	7.26148
	960.408	66.3711	8.14684
	962.308	84.6609	9.20113
	964.209	110.655	10.5192
	966.109	141.158	11.881
	968.009	182.969	13.5266
	969.91	225.912	15.0304
	971.81	273.194	16.5286
	973.71	315.962	17.7753
	975.611	343.42	18.5316
	977.511	355.886	18.8649
	979.411	348.567	18.67
	981.312	330.847	18.1892
	983.212	306.097	17.4956
	985.112	280.577	16.7504
	987.013	253.962	15.9362
	988.913	230.92	15.196
	990.813	209.486	14.4736
	992.714	190.719	13.8101
	994.614	173.635	13.1771
	996.514	158.107	12.5741
	998.415	143.534	11.9806
	1000.31	129.349	11.3732
	1002.22	116.72	10.8037
	1004.12	104.831	10.2387
	1006.02	94.0275	9.69678
	1007.92	85.2479	9.23298
	1009.82	77.0675	8.77881
	1011.72	70.6959	8.40808
	1013.62	64.8567	8.05336
	1015.52	60.2175	7.76
	1017.42	55.9735	7.48155
	1019.32	52.306	7.23229
	1021.22	48.8247	6.98747
	1023.12	45.1407	6.71868
	1025.02	41.6519	6.45383
	1026.92	38.4262	6.19889
	1028.82	35.4143	5.95099
	1030.72	32.318	5.68489
	1032.62	29.3842	5.42072
	1034.52	26.135	5.11224
	1036.42	23.5253	4.85028
	1038.32	21.516	4.63853
	1040.22	19.3955	4.40403
	1042.12	16.8002	4.09881
	1044.02	14.0412	3.74716
	1045.92	11.6827	3.418
	1047.82	10.0581	3.17145
	1049.72	8.55478	2.92486
	1051.62	7.35343	2.71172
	1053.52	5.81422	2.41127
	1055.42	4.58535	2.14134
	1057.32	3.67158	1.91614
	1059.23	2.79939	1.67314
	1061.13	2.32945	1.52625
	1063.03	1.72383	1.31295
	1064.93	1.01154	1.00575
	1066.83	0.327566	0.572334
	1068.73	0.0835081	0.288978
	1070.63	-0.324468	0.569621
	1072.53	-0.596417	0.77228
	1074.43	-0.71642	0.846416
	1076.33	-0.514222	0.717093
	1078.23	-0.461124	0.679061
	1080.13	-0.740879	0.860743
	1082.03	-0.957216	0.978374
	1083.93	-0.59836	0.773537
	1085.83	-0.204091	0.451764
	1087.73	0.475792	0.689777
	1089.63	1.20267	1.09667
	1091.53	1.62252	1.27378
	1093.43	1.62182	1.27351
	1095.33	1.28957	1.13559
	1097.23	1.33866	1.157
	1099.13	1.76389	1.32811
	1101.03	2.19606	1.48191
	1102.93	2.52986	1.59055
	1104.83	2.22985	1.49327
	1106.73	1.29271	1.13697
	1108.63	0.61474	0.784053
	1110.53	0.601471	0.775546
	1112.43	0.527373	0.726205
	1114.33	0.505979	0.711322
	1116.23	-0.0853161	0.292089
	1118.14	0.0591655	0.24324
	1120.04	0.224243	0.473543
	1121.94	0.36459	0.603813
	1123.84	0.337949	0.581334
	1125.74	0.123114	0.350876
	1127.64	0.0711174	0.266678
	1129.54	-0.0191923	0.138536
	1131.44	0.139814	0.373918
	1133.34	0.139276	0.373196
	1135.24	0.283519	0.532465
	1137.14	0.470984	0.686283
	1139.04	0.656253	0.810094
	1140.94	0.875736	0.935807
	1142.84	1.37963	1.17457
	1144.74	1.50037	1.2249
	1146.64	1.2734	1.12845
	1148.54	1.04398	1.02175
	1150.44	0.906281	0.951988
	1152.34	0.673926	0.82093
	1154.24	0.554914	0.744925
	1156.14	0.808654	0.899252
	1158.04	1.06051	1.02981
	1159.94	0.749929	0.865985
	1161.84	0.766784	0.875662
	1163.74	0.63152	0.794682
	1165.64	0.533173	0.730187
	1167.54	0.76174	0.872777
	1169.44	0.66114	0.813105
	1171.34	0.655289	0.809499
	1173.24	0.78409	0.885488
	1175.15	1.21269	1.10122
	1177.05	1.43608	1.19837
	1178.95	1.05222	1.02578
	1180.85	0.455873	0.675184
	1182.75	0.502598	0.708942
	1184.65	0.526863	0.725853
	1186.55	0.355106	0.595908
	1188.45	-0.419116	0.647391
	1190.35	-0.463857	0.68107
	1192.25	-0.124476	0.352811
	1194.15	0.269938	0.519556
	1196.05	0.233306	0.483018
	1197.95	-0.126435	0.355577
	1199.85	0.113572	0.337005
	1201.75	-0.214564	0.46321
	1203.65	-0.38305	0.618911
	1205.55	-0.823796	0.907632
	1207.45	-0.604733	0.777646
	1209.35	-0.320469	0.5661
	1211.25	0.03579	0.189182
	1213.15	0.421989	0.649607
	1215.05	0.650312	0.806419
	1216.95	0.831289	0.911751
	1218.85	0.651961	0.807441
	1220.75	1.06702	1.03297
	1222.65	1.30877	1.14402
	1224.55	1.73949	1.3189
	1226.45	2.51665	1.58639
	1228.35	3.04005	1.74357
	1230.25	4.00675	2.00169
	1232.15	4.63189	2.15218
	1234.06	6.13981	2.47786
	1235.96	7.54277	2.74641
	1237.86	9.1586	3.02632
	1239.76	10.7304	3.27574
	1241.66	12.5763	3.54631
	1243.56	15.0721	3.88228
	1245.46	18.5289	4.30452
	1247.36	22.5114	4.74462
	1249.26	26.8078	5.17763
	1251.16	32.9151	5.73717
	1253.06	39.5377	6.2879
	1254.96	48.42	6.95845
	1256.86	60.1275	7.75419
	1258.76	74.0891	8.60751
	1260.66	92.6998	9.62808
	1262.56	115.109	10.7289
	1264.46	144.508	12.0212
	1266.36	182.873	13.523
	1268.26	227.379	15.0791
	1270.16	280.521	16.7488
	1272.06	341.217	18.472
	1273.96	404.723	20.1177
	1275.86	468.051	21.6345
	1277.76	521.186	22.8295
	1279.66	559.284	23.6492
	1281.56	580.074	24.0847
	1283.46	581.429	24.1128
	1285.36	562.388	23.7147
	1287.26	530.282	23.0279
	1289.16	488.646	22.1053
	1291.06	436.078	20.8825
	1292.97	383.843	19.5919
	1294.87	328.463	18.1236
	1296.77	275.162	16.588
	1298.67	224.672	14.9891
	1300.57	180.185	13.4233
	1302.47	144.239	12.01
	1304.37	114.42	10.6967
	1306.27	90.4295	9.50944
	1308.17	72.1771	8.49571
	1310.07	58.8499	7.67137
	1311.97	48.9871	6.99908
	1313.87	41.7003	6.45758
	1315.77	35.7769	5.98138
	1317.67	30.5265	5.52508
	1319.57	26.7691	5.17389
	1321.47	23.3985	4.8372
	1323.37	21.1186	4.5955
	1325.27	18.562	4.30836
	1327.17	16.4322	4.05367
	1329.07	14.5759	3.81784
	1330.97	13.2181	3.63566
	1332.87	12.0123	3.46588
	1334.77	10.3456	3.21647
	1336.67	8.96428	2.99404
	1338.57	7.82965	2.79815
	1340.47	7.01951	2.64944
	1342.37	6.22062	2.49412
	1344.27	5.29027	2.30006
	1346.17	4.64412	2.15502
	1348.07	3.72065	1.9289
	1349.98	3.34463	1.82883
	1351.88	2.84055	1.68539
	1353.78	2.73272	1.65309
	1355.68	1.79309	1.33906
	1357.58	1.47807	1.21576
	1359.48	1.30235	1.14121
	1361.38	1.11302	1.055
	1363.28	1.17719	1.08498
	1365.18	1.27229	1.12796
	1367.08	1.24066	1.11385
	1368.98	1.1579	1.07606
	1370.88	0.864413	0.929738
	1372.78	0.653415	0.808341
	1374.68	0.493688	0.70263
	1376.58	0.665107	0.815541
	1378.48	0.90547	0.951562
	1380.38	1.09237	1.04516
	1382.28	1.1179	1.05731
	1384.18	1.21135	1.10061
	1386.08	0.963931	0.9818
	1387.98	1.16324	1.07854
	1389.88	1.117	1.05688
	1391.78	0.959578	0.979581
	1393.68	0.726543	0.852375
	1395.58	0.585688	0.765303
	1397.48	0.378905	0.615552
	1399.38	0.30126	0.548871
	1401.28	0.266844	0.516569
	1403.18	0.331959	0.576159
	1405.08	0.253624	0.503611
	1406.98	0.23359	0.483311
	1408.89	0.238995	0.488871
	1410.79	0.21382	0.462407
	1412.69	0.348177	0.590065
	1414.59	0.300233	0.547935
	1416.49	0.246556	0.496544
	1418.39	0.0351859	0.187579
	1420.29	-0.207502	0.455524
	1422.19	-0.29515	0.543277
	1424.09	-0.392032	0.626125
	1425.99	-0.395602	0.628969
	1427.89	-0.589589	0.767847
	1429.79	-0.603172	0.776641
	1431.69	-0.513921	0.716883
	1433.59	-0.125242	0.353895
	1435.49	-0.150248	0.387619
	1437.39	-0.162685	0.403342
	1439.29	-0.239796	0.489689
	1441.19	0.0554353	0.235447
	1443.09	0.0190591	0.138055
	1444.99	0.291436	0.539848
	1446.89	0.471524	0.686676
	1448.79	1.09687	1.04732
	1450.69	1.43684	1.19868
	1452.59	1.48299	1.21778
	1454.49	1.39082	1.17933
	1456.39	1.81779	1.34825
	1458.29	2.66989	1.63398
	1460.19	3.37492	1.8371
	1462.09	3.78953	1.94667
	1463.99	4.36171	2.08847
	1465.89	4.82381	2.19632
	1467.8	5.24382	2.28994
	1469.7	5.7006	2.38759
	1471.6	5.92121	2.43335
	1473.5	6.00011	2.44951
	1475.4	6.01269	2.45208
	1477.3	5.67882	2.38303
	1479.2	4.95806	2.22667
	1481.1	4.59668	2.14399
	1483	4.50836	2.12329
	1484.9	4.17367	2.04296
	1486.8	3.60151	1.89776
	1488.7	2.89465	1.70137
	1490.6	2.58176	1.60678
	1492.5	2.44706	1.56431
	1494.4	1.8795	1.37095
	1496.3	1.40016	1.18328
	1498.2	1.26743	1.1258
	1500.1	1.39341	1.18043
	1502	1.08518	1.04172
	1503.9	0.926807	0.962708
	1505.8	0.644095	0.802555
	1507.7	0.923873	0.961183
	1509.6	0.819341	0.905175
	1511.5	0.635493	0.797178
	1513.4	0.33892	0.582169
	1515.3	0.132658	0.364223
	1517.2	0.30604	0.553209
	1519.1	0.514206	0.717082
	1521	0.236848	0.48667
	1522.9	0.0410566	0.202624
	1524.81	-0.167961	0.40983
	1526.71	-0.00426978	0.0653436
	1528.61	-0.0301915	0.173757
	1530.51	-0.227296	0.476756
	1532.41	0.131729	0.362944
	1534.31	0.313629	0.560026
	1536.21	0.609573	0.780751
	1538.11	0.301309	0.548916
	1540.01	0.321705	0.567191
	1541.91	0.498158	0.705803
	1543.81	0.832244	0.912274
	1545.71	0.692715	0.832295
	1547.61	0.443839	0.666212
	1549.51	0.490144	0.700103
	1551.41	0.645161	0.803219
	1553.31	0.615329	0.784429
	1555.21	0.507245	0.712212
	1557.11	0.128201	0.358052
	1559.01	0.326655	0.571537
	1560.91	0.645505	0.803433
	1562.81	1.19447	1.09292
	1564.71	1.0436	1.02157
	1566.61	1.06973	1.03428
	1568.51	0.920242	0.959292
	1570.41	1.15341	1.07397
	1572.31	1.28899	1.13534
	1574.21	1.349	1.16147
	1576.11	1.32157	1.1496
	1578.01	1.27243	1.12802
	1579.91	1.43132	1.19638
	1581.81	1.40627	1.18586
	1583.72	1.49317	1.22195
	1585.62	1.14779	1.07135
	1587.52	0.96785	0.983794
	1589.42	0.716837	0.846662
	1591.32	0.834794	0.913671
	1593.22	1.03479	1.01725
	1595.12	1.41741	1.19055
	1597.02	1.2206	1.10481
	1598.92	1.04294	1.02125
	1600.82	0.811738	0.900965
	1602.72	0.690175	0.830767
	1604.62	0.107504	0.327877
	1606.52	-0.0778274	0.278976
	1608.42	-0.00885401	0.0940957
	1610.32	0.18147	0.425993
	1612.22	0.491152	0.700823
	1614.12	0.654171	0.808808
	1616.02	0.663836	0.814761
	1617.92	0.167638	0.409437
	1619.82	-0.0443906	0.210691
	1621.72	0.0486211	0.220502
	1623.62	0.0471103	0.217049
	1625.52	0.204642	0.452373
	1627.42	0.257909	0.507847
	1629.32	0.297127	0.545093
	1631.22	0.0729317	0.270059
	1633.12	-0.0575425	0.23988
	1635.02	0.268612	0.518278
	1636.92	0.28783	0.536498
	1638.82	0.710295	0.84279
	1640.73	0.615352	0.784444
	1642.63	0.67138	0.819378
	1644.53	0.541546	0.735898
	1646.43	0.945215	0.972222
