Generated file C:/Users/didvk/Downloads/Dioptas_Win64_0.5.0/1_mask&dat&fxye_1position/30_RuMoB2_470psi_noRuby_S_P1_C1_D1w_187.fxye using DIOPTAS
# == pyFAI calibration ==
# Distance Sample to Detector: 0.21643023575112377 m
# PONI: 8.848e-02, 8.638e-02 m
# Rotations: 0.008179 -0.001145 -0.000000 rad
# 
# == Fit2d calibration ==
# Distance Sample-beamCenter: 216.438 mm
# Center: x=491.896, y=512.970 pix
# Tilt: 0.473 deg  TiltPlanRot: -172.032 deg
# 
# Detector Pilatus CdTe 1M	 PixelSize= 1.720e-04, 1.720e-04 m
#    Detector has a mask: True 
#    Detector has a dark current: False 
#    detector has a flat field: False 
# 
# Wavelength: 4.133e-11 m
# Mask applied: None
# Dark current applied: None
# Flat field applied: None
# Polarization factor: None
# Normalization factor: None
BANK	1	1006	1006 CONS	293.393	1.90033 0.4133 0.0 FXYE
	293.393	0.423237	0.650566
	295.294	0.58024	0.761735
	297.194	0.971699	0.985748
	299.094	0.964078	0.981875
	300.995	0.51739	0.719299
	302.895	0.615778	0.784715
	304.795	0.569931	0.754938
	306.696	0.638254	0.798908
	308.596	0.173974	0.417102
	310.496	0.185615	0.43083
	312.397	0.600418	0.774866
	314.297	0.781968	0.88429
	316.197	1.13354	1.06468
	318.098	0.610079	0.781076
	319.998	0.837518	0.91516
	321.898	0.749354	0.865652
	323.799	1.08042	1.03943
	325.699	1.32981	1.15317
	327.599	0.6774	0.823043
	329.5	0.946293	0.972776
	331.4	0.953223	0.976331
	333.3	0.899028	0.948171
	335.201	0.752148	0.867265
	337.101	0.401898	0.633954
	339.001	0.931786	0.965291
	340.902	1.45957	1.20813
	342.802	1.26765	1.1259
	344.702	0.837327	0.915056
	346.603	0.594023	0.770729
	348.503	0.990447	0.995212
	350.403	1.06136	1.03023
	352.304	0.999875	0.999938
	354.204	1.72366	1.31288
	356.104	2.7813	1.66772
	358.005	4.55305	2.13379
	359.905	6.19305	2.48858
	361.805	8.41491	2.90085
	363.706	9.98444	3.15982
	365.606	9.92423	3.15027
	367.506	8.27947	2.87741
	369.407	6.23273	2.49654
	371.307	4.37629	2.09196
	373.207	3.02203	1.7384
	375.108	1.67385	1.29378
	377.008	1.15274	1.07366
	378.908	1.06211	1.03059
	380.808	0.468486	0.68446
	382.709	0.424143	0.651262
	384.609	1.21959	1.10435
	386.509	1.44881	1.20367
	388.41	0.616712	0.78531
	390.31	0.114712	0.338692
	392.21	0.421194	0.648995
	394.111	0.95816	0.978857
	396.011	0.909381	0.953615
	397.911	0.625064	0.79061
	399.812	0.629386	0.793339
	401.712	0.768013	0.876363
	403.612	0.580684	0.762026
	405.513	0.58455	0.764559
	407.413	0.180709	0.425098
	409.313	0.0944252	0.307287
	411.214	0.157053	0.3963
	413.114	0.693856	0.83298
	415.014	1.24587	1.11618
	416.915	1.44317	1.20132
	418.815	0.905069	0.951351
	420.715	0.415322	0.644455
	422.616	0.561936	0.749624
	424.516	0.536502	0.732463
	426.416	0.661018	0.81303
	428.317	0.0971704	0.311722
	430.217	0.414241	0.643615
	432.117	0.234272	0.484016
	434.018	0.230284	0.479879
	435.918	0.463804	0.681032
	437.818	0.719413	0.848182
	439.719	1.0467	1.02308
	441.619	0.984126	0.992031
	443.519	0.48033	0.693059
	445.42	0.510503	0.714495
	447.32	0.495085	0.703622
	449.22	0.230877	0.480497
	451.121	1.01164	1.0058
	453.021	1.2207	1.10485
	454.921	1.47891	1.2161
	456.822	0.605843	0.778359
	458.722	0.852373	0.923241
	460.622	0.727643	0.85302
	462.523	0.3673	0.606053
	464.423	-0.197006	0.443853
	466.323	-0.270211	0.519819
	468.224	0.101719	0.318934
	470.124	0.592158	0.769518
	472.024	0.995158	0.997576
	473.924	1.20013	1.09551
	475.825	1.67292	1.29341
	477.725	1.4024	1.18423
	479.625	1.19222	1.09189
	481.526	0.680884	0.825157
	483.426	0.535291	0.731636
	485.326	0.432165	0.657393
	487.227	0.674299	0.821157
	489.127	0.323343	0.568632
	491.027	0.299076	0.546879
	492.928	0.265316	0.515088
	494.828	0.235855	0.485649
	496.728	0.423476	0.650751
	498.629	0.559546	0.748028
	500.529	0.669012	0.817931
	502.429	0.69203	0.831883
	504.33	0.47752	0.691028
	506.23	0.316631	0.562699
	508.13	0.153903	0.392305
	510.031	0.402161	0.634161
	511.931	0.418019	0.646544
	513.831	0.949576	0.974462
	515.732	0.932059	0.965432
	517.632	0.603746	0.777011
	519.532	0.667012	0.816708
	521.433	0.761823	0.872825
	523.333	0.836255	0.91447
	525.233	1.3772	1.17354
	527.134	1.23359	1.11067
	529.034	1.20249	1.09658
	530.934	0.651404	0.807096
	532.835	0.437877	0.661723
	534.735	0.279461	0.528641
	536.635	0.380271	0.616661
	538.536	0.274244	0.523683
	540.436	0.319382	0.565139
	542.336	0.614996	0.784217
	544.237	1.17316	1.08313
	546.137	1.04759	1.02352
	548.037	1.18011	1.08633
	549.938	1.09854	1.04811
	551.838	1.06229	1.03068
	553.738	1.02642	1.01313
	555.639	1.00245	1.00122
	557.539	1.29033	1.13593
	559.439	0.649914	0.806173
	561.34	0.17424	0.417421
	563.24	-0.248642	0.49864
	565.14	-0.0130891	0.114407
	567.041	0.284589	0.533469
	568.941	0.384744	0.620277
	570.841	0.672273	0.819923
	572.741	0.541741	0.73603
	574.642	0.752823	0.867654
	576.542	0.441502	0.664456
	578.442	1.17572	1.08431
	580.343	1.54919	1.24467
	582.243	1.11673	1.05676
	584.143	0.745617	0.863491
	586.044	0.174124	0.417281
	587.944	0.308443	0.555376
	589.844	-0.0923599	0.303908
	591.745	-0.129013	0.359183
	593.645	0.278735	0.527953
	595.545	1.22666	1.10755
	597.446	2.01256	1.41865
	599.346	2.09383	1.44701
	601.246	1.58019	1.25705
	603.147	1.25153	1.11872
	605.047	1.08985	1.04396
	606.947	0.977392	0.988631
	608.848	1.23854	1.1129
	610.748	1.24524	1.1159
	612.648	1.25636	1.12088
	614.549	0.701024	0.837272
	616.449	0.282254	0.531276
	618.349	0.389342	0.623973
	620.25	0.404933	0.636344
	622.15	0.529479	0.727653
	624.05	0.533932	0.730707
	625.951	0.449564	0.670496
	627.851	0.191783	0.437931
	629.751	0.118698	0.344526
	631.652	-0.0834849	0.288938
	633.552	0.173269	0.416256
	635.452	0.791607	0.889723
	637.353	0.706198	0.840356
	639.253	0.479742	0.692634
	641.153	0.530068	0.728058
	643.054	0.793722	0.890911
	644.954	0.945237	0.972233
	646.854	0.787302	0.8873
	648.755	0.32084	0.566428
	650.655	0.106019	0.325605
	652.555	0.327965	0.572682
	654.456	0.985699	0.992824
	656.356	1.10891	1.05305
	658.256	1.30869	1.14398
	660.157	1.24458	1.11561
	662.057	2.10135	1.4496
	663.957	2.60623	1.61438
	665.857	2.86337	1.69215
	667.758	2.65144	1.62832
	669.658	1.92399	1.38708
	671.558	0.984137	0.992037
	673.459	0.0276599	0.166313
	675.359	-0.0852579	0.29199
	677.259	-0.165068	0.406286
	679.16	-0.00470053	0.0685604
	681.06	-0.406727	0.637752
	682.96	-0.271894	0.521434
	684.861	-0.128066	0.357863
	686.761	0.251545	0.501543
	688.661	0.369836	0.608141
	690.562	0.184155	0.429133
	692.462	0.10977	0.331316
	694.362	0.670745	0.81899
	696.263	1.38013	1.17479
	698.163	2.01691	1.42018
	700.063	2.40149	1.54967
	701.964	2.64865	1.62747
	703.864	3.5239	1.8772
	705.764	4.15995	2.0396
	707.665	4.95992	2.22709
	709.565	5.34917	2.31283
	711.465	6.38365	2.52659
	713.366	7.97829	2.82459
	715.266	9.58769	3.0964
	717.166	12.3647	3.51635
	719.067	14.728	3.83771
	720.967	19.495	4.41531
	722.867	24.8168	4.98165
	724.768	30.815	5.55113
	726.668	36.9807	6.08118
	728.568	40.6593	6.37646
	730.469	41.4233	6.4361
	732.369	39.962	6.32155
	734.269	36.7317	6.06066
	736.17	32.5343	5.70388
	738.07	28.7589	5.36273
	739.97	25.0623	5.00622
	741.871	22.3884	4.73163
	743.771	20.676	4.54708
	745.671	18.6927	4.32351
	747.572	17.1137	4.13687
	749.472	16.2161	4.02692
	751.372	15.6086	3.95077
	753.273	14.6324	3.82523
	755.173	14.2431	3.77401
	757.073	14.0854	3.75305
	758.973	13.665	3.69662
	760.874	13.1012	3.61956
	762.774	12.9208	3.59455
	764.674	12.7982	3.57745
	766.575	12.6011	3.5498
	768.475	12.1956	3.49223
	770.375	12.0646	3.47342
	772.276	12.1557	3.4865
	774.176	12.6919	3.56257
	776.076	12.7293	3.56781
	777.977	12.2288	3.49697
	779.877	11.7008	3.42065
	781.777	10.7033	3.27159
	783.678	9.52481	3.08623
	785.578	8.59797	2.93223
	787.478	7.4832	2.73554
	789.379	6.25722	2.50144
	791.279	5.13827	2.26677
	793.179	4.36368	2.08894
	795.08	3.85177	1.96259
	796.98	3.8273	1.95635
	798.88	3.62808	1.90475
	800.781	3.30874	1.819
	802.681	2.56491	1.60153
	804.581	1.85471	1.36188
	806.482	1.67064	1.29253
	808.382	1.58695	1.25974
	810.282	1.53465	1.23881
	812.183	1.85376	1.36153
	814.083	1.83506	1.35464
	815.983	1.44374	1.20156
	817.884	1.1896	1.09069
	819.784	0.98688	0.993418
	821.684	1.22939	1.10878
	823.585	0.993519	0.996754
	825.485	0.834765	0.913655
	827.385	0.4465	0.668206
	829.286	0.109864	0.331457
	831.186	0.15812	0.397644
	833.086	0.360448	0.600373
	834.987	0.902654	0.950081
	836.887	0.803087	0.896151
	838.787	0.868067	0.931701
	840.688	0.675561	0.821925
	842.588	0.532719	0.729876
	844.488	0.359116	0.599263
	846.389	-0.167892	0.409746
	848.289	-0.235269	0.485045
	850.189	-0.203683	0.451312
	852.089	0.16494	0.406128
	853.99	0.188355	0.433999
	855.89	0.370144	0.608395
	857.79	0.756051	0.869512
	859.691	0.609169	0.780493
	861.591	0.589032	0.767484
	863.491	0.489148	0.699391
	865.392	0.337574	0.581011
	867.292	0.376582	0.613663
	869.192	0.551482	0.742618
	871.093	0.495647	0.704022
	872.993	0.0422514	0.205552
	874.893	-0.392999	0.626896
	876.794	-0.436087	0.660369
	878.694	-0.402693	0.634581
	880.594	-0.531966	0.72936
	882.495	-0.377555	0.614455
	884.395	-0.289581	0.538127
	886.295	-0.237476	0.487315
	888.196	-0.0365976	0.191305
	890.096	0.458457	0.677094
	891.996	0.650026	0.806242
	893.897	0.319312	0.565077
	895.797	-0.115423	0.339739
	897.697	0.00673353	0.0820581
	899.598	-0.113618	0.337073
	901.498	0.0651293	0.255204
	903.398	0.305394	0.552624
	905.299	0.576883	0.759528
	907.199	0.574251	0.757794
	909.099	0.630454	0.794011
	911	0.961977	0.980804
	912.9	1.48163	1.21722
	914.8	1.89051	1.37496
	916.701	2.1885	1.47936
	918.601	2.14771	1.46551
	920.501	2.2886	1.51281
	922.402	2.79805	1.67274
	924.302	3.54858	1.88377
	926.202	3.92953	1.9823
	928.103	5.08191	2.25431
	930.003	6.21139	2.49227
	931.903	7.99707	2.82791
	933.804	9.56175	3.09221
	935.704	11.8215	3.43824
	937.604	13.8235	3.718
	939.505	16.4599	4.05708
	941.405	20.2893	4.50436
	943.305	24.6027	4.96012
	945.206	30.3313	5.50739
	947.106	37.5726	6.12965
	949.006	45.8948	6.77457
	950.906	58.4184	7.64319
	952.807	73.553	8.57631
	954.707	98.2115	9.91017
	956.607	126.766	11.259
	958.508	164.256	12.8162
	960.408	206.112	14.3566
	962.308	248.506	15.7641
	964.209	293.869	17.1426
	966.109	320.321	17.8975
	968.009	341.886	18.4902
	969.91	342.108	18.4962
	971.81	331.091	18.1959
	973.71	311.561	17.6511
	975.611	290.393	17.0409
	977.511	264.489	16.2631
	979.411	241.776	15.5492
	981.312	219.265	14.8076
	983.212	199.952	14.1404
	985.112	183.266	13.5376
	987.013	167.149	12.9286
	988.913	153.243	12.3792
	990.813	137.421	11.7227
	992.714	123.654	11.12
	994.614	110.931	10.5324
	996.514	99.7915	9.98957
	998.415	90.7366	9.52558
	1000.31	81.9175	9.05083
	1002.22	75.262	8.67537
	1004.12	69.1094	8.31321
	1006.02	63.9728	7.9983
	1007.92	59.2517	7.69751
	1009.82	54.6699	7.39391
	1011.72	50.502	7.10648
	1013.62	46.6084	6.82703
	1015.52	42.9919	6.55682
	1017.42	39.1187	6.25449
	1019.32	36.0723	6.00602
	1021.22	32.9402	5.73935
	1023.12	29.7993	5.45887
	1025.02	26.5983	5.15736
	1026.92	23.1545	4.81191
	1028.82	20.1969	4.4941
	1030.72	17.5082	4.18428
	1032.62	15.2559	3.90588
	1034.52	12.9755	3.60216
	1036.42	11.0877	3.32982
	1038.32	9.07816	3.013
	1040.22	7.25338	2.69321
	1042.12	5.79159	2.40657
	1044.02	4.73375	2.17572
	1045.92	3.9992	1.9998
	1047.82	3.1362	1.77093
	1049.72	1.97981	1.40706
	1051.62	1.29732	1.139
	1053.52	1.25601	1.12072
	1055.42	0.756552	0.8698
	1057.32	0.0562258	0.23712
	1059.23	-0.349362	0.591068
	1061.13	-0.480958	0.693511
	1063.03	-0.0869826	0.294928
	1064.93	-0.359857	0.599881
	1066.83	-0.654567	0.809053
	1068.73	-1.07315	1.03593
	1070.63	-0.937672	0.968335
	1072.53	-0.544685	0.738028
	1074.43	-0.400318	0.632707
	1076.33	-0.0437541	0.209175
	1078.23	0.0887847	0.297968
	1080.13	0.255328	0.5053
	1082.03	0.213818	0.462405
	1083.93	0.632402	0.795237
	1085.83	0.969523	0.984644
	1087.73	1.71521	1.30966
	1089.63	2.52047	1.5876
	1091.53	3.02178	1.73833
	1093.43	3.14063	1.77218
	1095.33	2.95859	1.72005
	1097.23	2.11302	1.45362
	1099.13	1.82891	1.35237
	1101.03	1.70159	1.30445
	1102.93	1.49747	1.22371
	1104.83	0.824772	0.90817
	1106.73	0.101701	0.318905
	1108.63	0.0364914	0.191027
	1110.53	0.0786082	0.280371
	1112.43	0.302775	0.55025
	1114.33	0.0601585	0.245272
	1116.23	-0.163008	0.403742
	1118.14	-0.00271878	0.0521419
	1120.04	0.263605	0.513425
	1121.94	0.68141	0.825475
	1123.84	0.735569	0.857653
	1125.74	0.795086	0.891676
	1127.64	0.806297	0.89794
	1129.54	0.565304	0.751867
	1131.44	0.511537	0.715218
	1133.34	0.214189	0.462806
	1135.24	0.23945	0.489337
	1137.14	0.582805	0.763416
	1139.04	1.02027	1.01009
	1140.94	0.927552	0.963095
	1142.84	0.553545	0.744006
	1144.74	0.470849	0.686184
	1146.64	0.804789	0.8971
	1148.54	1.20516	1.0978
	1150.44	1.30037	1.14034
	1152.34	0.674452	0.82125
	1154.24	0.401383	0.633548
	1156.14	0.400718	0.633023
	1158.04	0.378245	0.615016
	1159.94	0.522138	0.722591
	1161.84	0.557011	0.746332
	1163.74	0.897953	0.947604
	1165.64	0.736917	0.858439
	1167.54	1.11126	1.05416
	1169.44	0.870055	0.932768
	1171.34	0.437481	0.661424
	1173.24	0.0512525	0.22639
	1175.15	-0.140207	0.374442
	1177.05	-0.0970788	0.311575
	1178.95	-0.537488	0.733136
	1180.85	-0.673856	0.820888
	1182.75	-0.240141	0.490042
	1184.65	0.137182	0.370381
	1186.55	-0.0909688	0.30161
	1188.45	-0.455535	0.674933
	1190.35	-0.265651	0.515414
	1192.25	0.106574	0.326456
	1194.15	-0.0644179	0.253807
	1196.05	-0.398332	0.631135
	1197.95	-0.463998	0.681174
	1199.85	-0.170697	0.413155
	1201.75	-0.249988	0.499988
	1203.65	-0.0376625	0.194068
	1205.55	0.271008	0.520584
	1207.45	0.791678	0.889763
	1209.35	0.999743	0.999871
	1211.25	1.50893	1.22838
	1213.15	1.99489	1.41241
	1215.05	2.82948	1.68211
	1216.95	3.48152	1.86588
	1218.85	4.57453	2.13882
	1220.75	5.91249	2.43156
	1222.65	7.53738	2.74543
	1224.55	8.82219	2.97022
	1226.45	10.7205	3.27421
	1228.35	12.637	3.55485
	1230.25	15.4629	3.93228
	1232.15	18.4283	4.29281
	1234.06	22.2177	4.71356
	1235.96	27.2227	5.21754
	1237.86	33.2355	5.76502
	1239.76	40.3338	6.35089
	1241.66	50.1497	7.08164
	1243.56	62.1436	7.88312
	1245.46	78.0833	8.83648
	1247.36	98.2763	9.91344
	1249.26	122.718	11.0778
	1251.16	156.245	12.4998
	1253.06	194.038	13.9297
	1254.96	243.303	15.5982
	1256.86	298.327	17.2722
	1258.76	361.237	19.0062
	1260.66	422.366	20.5516
	1262.56	478.551	21.8758
	1264.46	522.433	22.8568
	1266.36	548.128	23.4121
	1268.26	558.292	23.6282
	1270.16	550.801	23.4691
	1272.06	524.424	22.9003
	1273.96	489.577	22.1264
	1275.86	444.781	21.0898
	1277.76	395.193	19.8795
	1279.66	344.904	18.5716
	1281.56	294.4	17.1581
	1283.46	247.659	15.7372
	1285.36	203.456	14.2638
	1287.26	163.793	12.7982
	1289.16	131.608	11.472
	1291.06	105.243	10.2588
	1292.97	84.6732	9.20181
	1294.87	68.5798	8.28129
	1296.77	55.8516	7.47339
	1298.67	46.7134	6.83472
	1300.57	39.1283	6.25526
	1302.47	33.4607	5.78452
	1304.37	28.9822	5.38351
	1306.27	25.1542	5.0154
	1308.17	22.2295	4.71482
	1310.07	19.5244	4.41864
	1311.97	17.4621	4.17877
	1313.87	15.6865	3.96062
	1315.77	14.5798	3.81835
	1317.67	12.9743	3.60199
	1319.57	11.6621	3.41498
	1321.47	10.274	3.20531
	1323.37	9.22004	3.03645
	1325.27	7.90346	2.81131
	1327.17	6.80546	2.60873
	1329.07	5.96741	2.44283
	1330.97	5.67111	2.38141
	1332.87	5.11974	2.26268
	1334.77	4.73845	2.1768
	1336.67	3.9897	1.99742
	1338.57	3.62075	1.90283
	1340.47	3.12404	1.76749
	1342.37	2.75621	1.66018
	1344.27	2.23516	1.49504
	1346.17	2.23403	1.49467
	1348.07	2.26729	1.50575
	1349.98	2.04837	1.43121
	1351.88	1.80846	1.34479
	1353.78	1.81131	1.34585
	1355.68	1.96003	1.40001
	1357.58	2.07174	1.43935
	1359.48	2.29947	1.5164
	1361.38	2.35085	1.53325
	1363.28	2.11169	1.45317
	1365.18	1.70863	1.30714
	1367.08	1.71406	1.30922
	1368.98	1.51542	1.23102
	1370.88	1.42371	1.1932
	1372.78	1.34349	1.15909
	1374.68	1.42673	1.19446
	1376.58	1.1996	1.09526
	1378.48	1.02405	1.01195
	1380.38	0.842686	0.91798
	1382.28	0.606368	0.778696
	1384.18	0.690457	0.830937
	1386.08	0.284559	0.533441
	1387.98	0.589328	0.767677
	1389.88	0.494401	0.703137
	1391.78	0.718934	0.8479
	1393.68	0.338991	0.582229
	1395.58	0.222681	0.471891
	1397.48	0.045529	0.213375
	1399.38	-0.219799	0.468827
	1401.28	-0.334371	0.578248
	1403.18	-0.389825	0.62436
	1405.08	-0.249938	0.499938
	1406.98	-0.217665	0.466546
	1408.89	-0.183648	0.428542
	1410.79	-0.150816	0.38835
	1412.69	-0.437916	0.661752
	1414.59	-0.524334	0.724109
	1416.49	-0.447904	0.669257
	1418.39	-0.570821	0.755527
	1420.29	-0.346914	0.588994
	1422.19	0.0495549	0.222609
	1424.09	0.391252	0.625501
	1425.99	0.427889	0.654132
	1427.89	0.33505	0.578835
	1429.79	0.28041	0.529538
	1431.69	0.0279585	0.167208
	1433.59	0.367634	0.606328
	1435.49	0.354922	0.595754
	1437.39	0.740022	0.860246
	1439.29	1.2621	1.12343
	1441.19	2.03063	1.425
	1443.09	2.57247	1.60389
	1444.99	3.11513	1.76497
	1446.89	4.07329	2.01824
	1448.79	4.97816	2.23118
	1450.69	6.02315	2.45421
	1452.59	7.17383	2.6784
	1454.49	8.41866	2.90149
	1456.39	9.48861	3.08036
	1458.29	9.89025	3.14488
	1460.19	9.36101	3.05958
	1462.09	8.46525	2.90951
	1463.99	7.68635	2.77243
	1465.89	7.20553	2.68431
	1467.8	6.54851	2.55901
	1469.7	5.56464	2.35895
	1471.6	4.46928	2.11407
	1473.5	3.94616	1.98649
	1475.4	3.49305	1.86897
	1477.3	3.22234	1.79509
	1479.2	2.75211	1.65895
	1481.1	2.55154	1.59735
	1483	2.56352	1.6011
	1484.9	2.22584	1.49193
	1486.8	1.64927	1.28424
	1488.7	1.02477	1.01231
	1490.6	1.13505	1.06539
	1492.5	1.09048	1.04426
	1494.4	0.969011	0.984383
	1496.3	0.673771	0.820836
	1498.2	0.710642	0.842996
	1500.1	0.620481	0.787706
	1502	0.443129	0.665679
	1503.9	0.676302	0.822376
	1505.8	0.547231	0.73975
	1507.7	0.50692	0.711983
	1509.6	0.525243	0.724736
	1511.5	0.636261	0.79766
	1513.4	0.536568	0.732508
	1515.3	0.648796	0.805479
	1517.2	0.81521	0.90289
	1519.1	0.614601	0.783965
	1521	0.510315	0.714363
	1522.9	0.736117	0.857973
	1524.81	0.695933	0.834226
	1526.71	0.531564	0.729084
	1528.61	0.654462	0.808988
	1530.51	0.775866	0.880833
	1532.41	0.931602	0.965196
	1534.31	0.636333	0.797705
	1536.21	0.484836	0.696302
	1538.11	0.061549	0.248091
	1540.01	0.380714	0.61702
	1541.91	0.942651	0.970902
	1543.81	1.48276	1.21768
	1545.71	1.43702	1.19876
	1547.61	1.4099	1.18739
	1549.51	1.44367	1.20153
	1551.41	1.68905	1.29963
	1553.31	1.55647	1.24759
	1555.21	1.39029	1.1791
	1557.11	1.46802	1.21162
	1559.01	1.37502	1.17261
	1560.91	1.43303	1.19709
	1562.81	1.32876	1.15272
	1564.71	1.61454	1.27065
	1566.61	1.99673	1.41306
	1568.51	2.18459	1.47804
	1570.41	2.3045	1.51806
	1572.31	2.10171	1.44973
	1574.21	1.81442	1.347
	1576.11	1.29598	1.13841
	1578.01	1.00219	1.0011
	1579.91	1.13648	1.06606
	1581.81	0.916693	0.957441
	1583.72	0.768158	0.876446
	1585.62	0.467147	0.683482
	1587.52	0.525674	0.725034
	1589.42	0.770239	0.877632
	1591.32	0.878246	0.937148
	1593.22	0.780628	0.883531
	1595.12	0.440445	0.663661
	1597.02	0.362735	0.602275
	1598.92	0.297963	0.54586
	1600.82	0.116584	0.341445
	1602.72	0.181539	0.426074
	1604.62	0.337734	0.581149
	1606.52	0.512711	0.716038
	1608.42	0.284875	0.533737
	1610.32	-0.138152	0.371688
	1612.22	-0.053248	0.230755
	1614.12	0.349447	0.59114
	1616.02	0.446093	0.667902
	1617.92	-0.0396128	0.19903
	1619.82	-0.0304246	0.174426
	1621.72	-0.092268	0.303756
	1623.62	0.0474052	0.217727
	1625.52	0.126677	0.355918
	1627.42	0.342422	0.585168
	1629.32	0.584678	0.764643
	1631.22	0.628397	0.792715
	1633.12	0.952866	0.976149
	1635.02	1.53392	1.23852
	1636.92	1.86106	1.36421
	1638.82	2.07392	1.44011
	1640.73	2.18075	1.47673
	1642.63	2.62925	1.62149
	1644.53	3.34401	1.82866
	1646.43	4.17055	2.04219
