Generated file C:/Users/didvk/Downloads/Dioptas_Win64_0.5.0/1_mask&dat&fxye_1position/5_ReMoB2_450psi_30p5GPa_S_P1_C1_D1w_037.fxye using DIOPTAS
# == pyFAI calibration ==
# Distance Sample to Detector: 0.21643023575112377 m
# PONI: 8.848e-02, 8.638e-02 m
# Rotations: 0.008179 -0.001145 -0.000000 rad
# 
# == Fit2d calibration ==
# Distance Sample-beamCenter: 216.438 mm
# Center: x=491.896, y=512.970 pix
# Tilt: 0.473 deg  TiltPlanRot: -172.032 deg
# 
# Detector Pilatus CdTe 1M	 PixelSize= 1.720e-04, 1.720e-04 m
#    Detector has a mask: True 
#    Detector has a dark current: False 
#    detector has a flat field: False 
# 
# Wavelength: 4.133e-11 m
# Mask applied: None
# Dark current applied: None
# Flat field applied: None
# Polarization factor: None
# Normalization factor: None
BANK	1	1006	1006 CONS	293.393	1.90033 0.4133 0.0 FXYE
	293.393	0.458681	0.67726
	295.294	0.447663	0.669076
	297.194	0.160836	0.401044
	299.094	0.266653	0.516384
	300.995	0.454209	0.67395
	302.895	0.592701	0.769871
	304.795	0.612403	0.782562
	306.696	0.940478	0.969782
	308.596	1.17683	1.08482
	310.496	1.26861	1.12632
	312.397	0.881192	0.938719
	314.297	1.0284	1.0141
	316.197	0.797874	0.893238
	318.098	0.373269	0.610958
	319.998	0.129071	0.359264
	321.898	0.425059	0.651965
	323.799	1.04882	1.02412
	325.699	1.16009	1.07707
	327.599	1.7039	1.30533
	329.5	1.73676	1.31786
	331.4	1.45895	1.20787
	333.3	1.14263	1.06894
	335.201	1.79888	1.34122
	337.101	3.56719	1.8887
	339.001	6.0197	2.45351
	340.902	10.122	3.18151
	342.802	16.149	4.01858
	344.702	23.2079	4.81746
	346.603	29.8284	5.46153
	348.503	34.6482	5.88627
	350.403	34.8893	5.90671
	352.304	29.6326	5.44358
	354.204	21.5902	4.64653
	356.104	12.8517	3.58493
	358.005	7.59932	2.75669
	359.905	4.31736	2.07783
	361.805	2.77302	1.66524
	363.706	1.75385	1.32433
	365.606	1.76099	1.32702
	367.506	1.64471	1.28246
	369.407	1.05924	1.02919
	371.307	1.31337	1.14602
	373.207	2.2091	1.48631
	375.108	2.22314	1.49102
	377.008	1.73586	1.31752
	378.908	1.11154	1.0543
	380.808	1.18517	1.08866
	382.709	0.62878	0.792957
	384.609	0.634297	0.796428
	386.509	0.141787	0.376546
	388.41	0.132138	0.363507
	390.31	0.347763	0.589715
	392.21	0.400991	0.633238
	394.111	0.314998	0.561247
	396.011	-0.024251	0.155727
	397.911	0.134238	0.366385
	399.812	0.320104	0.565778
	401.712	0.219206	0.468195
	403.612	-0.0558333	0.236291
	405.513	0.222245	0.471428
	407.413	0.456797	0.675868
	409.313	0.72531	0.851651
	411.214	0.455131	0.674634
	413.114	0.419354	0.647575
	415.014	0.78038	0.883391
	416.915	0.906877	0.952301
	418.815	1.47081	1.21277
	420.715	1.47664	1.21517
	422.616	1.41813	1.19085
	424.516	0.628009	0.79247
	426.416	0.763725	0.873914
	428.317	0.665019	0.815487
	430.217	0.57458	0.75801
	432.117	0.535494	0.731775
	434.018	0.799375	0.894078
	435.918	0.730424	0.854648
	437.818	0.622614	0.789059
	439.719	0.20568	0.453519
	441.619	0.0298483	0.172767
	443.519	0.287198	0.535909
	445.42	0.910542	0.954223
	447.32	0.654608	0.809079
	449.22	0.693449	0.832736
	451.121	0.726143	0.85214
	453.021	0.767881	0.876288
	454.921	0.782176	0.884407
	456.822	0.145685	0.381687
	458.722	-0.1314	0.362492
	460.622	0.513183	0.716368
	462.523	1.12171	1.05911
	464.423	1.37717	1.17353
	466.323	0.987406	0.993683
	468.224	0.251768	0.501765
	470.124	-0.0444123	0.210742
	472.024	-0.101445	0.318504
	473.924	0.391327	0.625562
	475.825	0.821136	0.906165
	477.725	1.07782	1.03818
	479.625	1.39297	1.18024
	481.526	1.09661	1.04719
	483.426	1.36113	1.16667
	485.326	1.02294	1.0114
	487.227	1.30726	1.14335
	489.127	0.822139	0.906719
	491.027	1.01808	1.009
	492.928	0.500567	0.707508
	494.828	0.488608	0.699005
	496.728	0.51178	0.715388
	498.629	0.53369	0.730541
	500.529	0.57117	0.755758
	502.429	0.361297	0.60108
	504.33	0.670289	0.818712
	506.23	0.339634	0.582781
	508.13	0.0285488	0.168964
	510.031	-0.107034	0.32716
	511.931	-0.0587177	0.242317
	513.831	-0.0781939	0.279632
	515.732	-0.208454	0.456567
	517.632	0.120983	0.347826
	519.532	0.181292	0.425784
	521.433	0.445843	0.667715
	523.333	0.776502	0.881194
	525.233	0.987507	0.993734
	527.134	0.581892	0.762818
	529.034	0.573594	0.75736
	530.934	-0.0927456	0.304542
	532.835	0.0464356	0.215489
	534.735	0.221261	0.470384
	536.635	0.791318	0.889561
	538.536	0.734631	0.857106
	540.436	0.598102	0.773371
	542.336	0.0874654	0.295745
	544.237	-0.00851631	0.0922839
	546.137	0.0475798	0.218128
	548.037	0.61678	0.785353
	549.938	0.495253	0.703742
	551.838	0.14592	0.381995
	553.738	-0.0594746	0.243874
	555.639	-0.0119282	0.109216
	557.539	0.234342	0.484089
	559.439	0.370219	0.608457
	561.34	0.273075	0.522566
	563.24	-0.0537966	0.231941
	565.14	0.267154	0.51687
	567.041	1.26564	1.12501
	568.941	2.28363	1.51117
	570.841	3.83337	1.9579
	572.741	5.18458	2.27697
	574.642	6.62762	2.57442
	576.542	6.91063	2.62881
	578.442	6.88885	2.62466
	580.343	6.35354	2.52062
	582.243	5.74735	2.39736
	584.143	4.79434	2.1896
	586.044	3.46966	1.8627
	587.944	2.8976	1.70223
	589.844	2.24245	1.49748
	591.745	1.50143	1.22533
	593.645	0.900576	0.948987
	595.545	0.63987	0.799919
	597.446	0.956169	0.977839
	599.346	1.02095	1.01042
	601.246	0.811527	0.900848
	603.147	0.203671	0.451299
	605.047	0.133615	0.365534
	606.947	0.0188946	0.137458
	608.848	0.0100723	0.100361
	610.748	0.230854	0.480473
	612.648	0.358918	0.599098
	614.549	0.428298	0.654445
	616.449	0.455337	0.674786
	618.349	0.531182	0.728823
	620.25	0.210895	0.459233
	622.15	0.215429	0.464143
	624.05	0.636328	0.797702
	625.951	1.64466	1.28244
	627.851	2.48387	1.57603
	629.751	3.50815	1.87301
	631.652	5.44878	2.33426
	633.552	8.83786	2.97285
	635.452	15.5206	3.93961
	637.353	22.4241	4.7354
	639.253	28.4929	5.33787
	641.153	27.6813	5.2613
	643.054	22.9101	4.78645
	644.954	15.8347	3.97928
	646.854	10.1434	3.18487
	648.755	6.05729	2.46116
	650.655	4.09297	2.02311
	652.555	3.8935	1.97319
	654.456	5.00922	2.23813
	656.356	6.23432	2.49686
	658.256	7.81424	2.7954
	660.157	10.0344	3.16771
	662.057	11.8308	3.43959
	663.957	12.6649	3.55878
	665.857	12.1116	3.48018
	667.758	11.1565	3.34013
	669.658	10.3058	3.21027
	671.558	9.52073	3.08557
	673.459	8.63668	2.93882
	675.359	8.07145	2.84103
	677.259	8.53118	2.92082
	679.16	10.263	3.2036
	681.06	13.9124	3.72993
	682.96	18.8999	4.3474
	684.861	26.0466	5.10359
	686.761	36.0575	6.00479
	688.661	47.6737	6.90461
	690.562	63.989	7.99931
	692.462	77.8505	8.8233
	694.362	95.5983	9.77744
	696.263	106.247	10.3076
	698.163	114.921	10.7201
	700.063	113.043	10.6322
	701.964	106.764	10.3327
	703.864	89.6361	9.46763
	705.764	70.5618	8.40011
	707.665	50.2018	7.08532
	709.565	34.4665	5.87082
	711.465	23.2752	4.82444
	713.366	15.3355	3.91606
	715.266	10.256	3.2025
	717.166	6.77009	2.60194
	719.067	4.35814	2.08762
	720.967	3.32701	1.82401
	722.867	2.97336	1.72434
	724.768	2.40492	1.55078
	726.668	2.01107	1.41812
	728.568	1.40312	1.18453
	730.469	1.10864	1.05292
	732.369	0.86473	0.929909
	734.269	0.316787	0.562838
	736.17	0.135365	0.36792
	738.07	0.215258	0.463959
	739.97	0.561823	0.749548
	741.871	0.642791	0.801743
	743.771	0.648994	0.805602
	745.671	0.451959	0.672279
	747.572	0.457027	0.676038
	749.472	0.647225	0.804503
	751.372	0.455121	0.674627
	753.273	0.088566	0.2976
	755.173	-0.30213	0.549663
	757.073	-0.0966993	0.310965
	758.973	0.19594	0.442651
	760.874	0.38053	0.616871
	762.774	0.283076	0.532049
	764.674	0.103302	0.321406
	766.575	0.338817	0.582079
	768.475	0.610318	0.781228
	770.375	1.00842	1.0042
	772.276	0.913066	0.955545
	774.176	1.18588	1.08898
	776.076	1.27653	1.12984
	777.977	1.04101	1.0203
	779.877	0.509207	0.713588
	781.777	0.269331	0.518971
	783.678	0.387708	0.622662
	785.578	0.52632	0.725479
	787.478	0.625901	0.791139
	789.379	0.389552	0.624141
	791.279	0.670326	0.818734
	793.179	0.493092	0.702205
	795.08	0.513646	0.716691
	796.98	0.324857	0.569962
	798.88	0.499299	0.706611
	800.781	0.651132	0.806928
	802.681	0.582258	0.763058
	804.581	0.142873	0.377985
	806.482	-0.0592553	0.243424
	808.382	-0.147682	0.384295
	810.282	0.0225156	0.150052
	812.183	0.542615	0.736624
	814.083	0.519092	0.72048
	815.983	0.423661	0.650892
	817.884	0.168577	0.410581
	819.784	-0.0340951	0.184649
	821.684	-0.085473	0.292358
	823.585	0.225103	0.474451
	825.485	0.294476	0.542656
	827.385	0.378033	0.614844
	829.286	0.249638	0.499638
	831.186	0.340882	0.583851
	833.086	-0.0521548	0.228374
	834.987	0.239104	0.488983
	836.887	0.282379	0.531393
	838.787	0.613168	0.78305
	840.688	0.200158	0.44739
	842.588	0.106328	0.326079
	844.488	0.381039	0.617283
	846.389	0.66926	0.818083
	848.289	0.687018	0.828865
	850.189	0.417244	0.645944
	852.089	0.564244	0.751162
	853.99	0.381442	0.61761
	855.89	0.710307	0.842797
	857.79	0.833336	0.912872
	859.691	1.07507	1.03685
	861.591	0.821307	0.90626
	863.491	0.583034	0.763567
	865.392	0.240845	0.49076
	867.292	0.21352	0.462082
	869.192	-0.00107003	0.0327114
	871.093	-0.0946537	0.307658
	872.993	-0.256957	0.506909
	874.893	-0.0495714	0.222646
	876.794	0.311021	0.557693
	878.694	0.32656	0.571454
	880.594	-0.171686	0.41435
	882.495	-0.411342	0.641359
	884.395	-0.309672	0.556482
	886.295	0.178143	0.42207
	888.196	0.263821	0.513635
	890.096	0.72751	0.852942
	891.996	0.739082	0.859699
	893.897	0.759386	0.871427
	895.797	0.999108	0.999554
	897.697	1.44343	1.20143
	899.598	1.95811	1.39932
	901.498	2.31692	1.52214
	903.398	2.87599	1.69587
	905.299	4.16073	2.03979
	907.199	5.71437	2.39047
	909.099	8.29383	2.8799
	911	11.1786	3.34344
	912.9	15.4654	3.9326
	914.8	20.957	4.57788
	916.701	28.1943	5.30983
	918.601	37.7012	6.14013
	920.501	50.2626	7.08961
	922.402	68.3257	8.26594
	924.302	91.9656	9.58987
	926.202	124.168	11.1431
	928.103	169.545	13.0209
	930.003	233.197	15.2708
	931.903	329.665	18.1567
	933.804	437.246	20.9104
	935.704	580.106	24.0854
	937.604	673.021	25.9426
	939.505	755.335	27.4834
	941.405	762.407	27.6117
	943.305	724.791	26.9219
	945.206	628.897	25.0778
	947.106	520.519	22.8149
	949.006	441.522	21.0124
	950.906	375.929	19.3889
	952.807	336.575	18.346
	954.707	310.726	17.6274
	956.607	297.688	17.2536
	958.508	282.258	16.8005
	960.408	263.15	16.2219
	962.308	231.9	15.2283
	964.209	195.874	13.9955
	966.109	156.263	12.5005
	968.009	121.809	11.0367
	969.91	92.9485	9.64098
	971.81	70.7024	8.40847
	973.71	52.9512	7.27676
	975.611	39.5659	6.29015
	977.511	29.4238	5.42437
	979.411	22.2834	4.72052
	981.312	16.8882	4.10952
	983.212	12.4969	3.5351
	985.112	9.09676	3.01608
	987.013	6.40235	2.53029
	988.913	4.71775	2.17204
	990.813	3.22653	1.79626
	992.714	2.01424	1.41924
	994.614	0.942923	0.971042
	996.514	0.276375	0.525714
	998.415	-0.206005	0.453877
	1000.31	-0.517607	0.719449
	1002.22	-0.755493	0.869191
	1004.12	-0.671919	0.819707
	1006.02	-0.305235	0.552481
	1007.92	0.27429	0.523727
	1009.82	0.894186	0.945614
	1011.72	1.32653	1.15175
	1013.62	1.70859	1.30713
	1015.52	1.82131	1.34956
	1017.42	2.65693	1.63001
	1019.32	2.82654	1.68123
	1021.22	3.04151	1.74399
	1023.12	3.12097	1.76663
	1025.02	3.9143	1.97846
	1026.92	4.88616	2.21047
	1028.82	5.80892	2.41017
	1030.72	7.4948	2.73766
	1032.62	9.25185	3.04168
	1034.52	13.0933	3.61847
	1036.42	16.8161	4.10074
	1038.32	21.6551	4.65351
	1040.22	24.9782	4.99782
	1042.12	27.1774	5.21319
	1044.02	28.5073	5.33922
	1045.92	29.9679	5.4743
	1047.82	30.0056	5.47774
	1049.72	29.7248	5.45205
	1051.62	29.117	5.39601
	1053.52	28.6013	5.34802
	1055.42	28.4002	5.32919
	1057.32	27.6314	5.25656
	1059.23	26.1161	5.1104
	1061.13	24.0828	4.90743
	1063.03	22.3956	4.7324
	1064.93	21.084	4.59173
	1066.83	20.244	4.49933
	1068.73	20.3204	4.50782
	1070.63	20.7794	4.55844
	1072.53	21.7002	4.65835
	1074.43	22.3998	4.73285
	1076.33	23.332	4.83032
	1078.23	24.4581	4.94551
	1080.13	25.495	5.04926
	1082.03	27.2262	5.21788
	1083.93	28.9747	5.38281
	1085.83	30.2006	5.49551
	1087.73	31.8822	5.64644
	1089.63	33.2719	5.76818
	1091.53	34.463	5.87052
	1093.43	35.3418	5.9449
	1095.33	36.2247	6.01869
	1097.23	36.7801	6.06466
	1099.13	36.9177	6.07599
	1101.03	36.2908	6.02419
	1102.93	35.281	5.93978
	1104.83	33.7163	5.80658
	1106.73	31.7537	5.63505
	1108.63	30.1089	5.48716
	1110.53	28.9121	5.377
	1112.43	27.2258	5.21783
	1114.33	25.1175	5.01174
	1116.23	21.8791	4.67751
	1118.14	18.5818	4.31066
	1120.04	15.8275	3.97838
	1121.94	13.3145	3.64891
	1123.84	11.163	3.3411
	1125.74	9.049	3.00815
	1127.64	7.22212	2.6874
	1129.54	6.11146	2.47214
	1131.44	5.2833	2.29854
	1133.34	4.58309	2.14081
	1135.24	3.91593	1.97887
	1137.14	3.23017	1.79727
	1139.04	2.67113	1.63436
	1140.94	2.4652	1.5701
	1142.84	2.49423	1.57931
	1144.74	2.46251	1.56924
	1146.64	2.18283	1.47744
	1148.54	1.98581	1.40919
	1150.44	1.7229	1.31259
	1152.34	1.36286	1.16742
	1154.24	0.701586	0.837608
	1156.14	0.270201	0.519808
	1158.04	0.353445	0.594513
	1159.94	0.486736	0.697665
	1161.84	0.283559	0.532503
	1163.74	0.0177625	0.133276
	1165.64	-0.0915585	0.302586
	1167.54	-0.176874	0.420564
	1169.44	-0.509359	0.713694
	1171.34	-0.676118	0.822264
	1173.24	-0.678596	0.823769
	1175.15	-0.423658	0.65089
	1177.05	-0.154594	0.393185
	1178.95	-0.704857	0.839558
	1180.85	-1.2514	1.11866
	1182.75	-1.31327	1.14598
	1184.65	-0.977722	0.988798
	1186.55	-0.399954	0.63242
	1188.45	0.177021	0.420738
	1190.35	0.520914	0.721744
	1192.25	0.583757	0.76404
	1194.15	0.706211	0.840364
	1196.05	1.35899	1.16576
	1197.95	2.51041	1.58443
	1199.85	3.86466	1.96587
	1201.75	5.00443	2.23706
	1203.65	6.26017	2.50203
	1205.55	7.47016	2.73316
	1207.45	8.73694	2.95583
	1209.35	9.93655	3.15223
	1211.25	10.6578	3.26462
	1213.15	11.5308	3.39571
	1215.05	11.9949	3.46337
	1216.95	12.8306	3.58198
	1218.85	13.7241	3.7046
	1220.75	15.7971	3.97456
	1222.65	17.8977	4.23056
	1224.55	20.5562	4.53389
	1226.45	24.0883	4.90798
	1228.35	28.4694	5.33567
	1230.25	34.1103	5.8404
	1232.15	40.0685	6.32997
	1234.06	48.8945	6.99246
	1235.96	57.9686	7.61371
	1237.86	67.5046	8.21612
	1239.76	76.9497	8.7721
	1241.66	83.6777	9.14755
	1243.56	89.9367	9.48349
	1245.46	91.193	9.5495
	1247.36	89.4467	9.45763
	1249.26	86.7108	9.31186
	1251.16	81.3751	9.02081
	1253.06	74.0411	8.60471
	1254.96	69.1493	8.31561
	1256.86	63.1915	7.94931
	1258.76	57.7986	7.60254
	1260.66	52.4724	7.24378
	1262.56	48.1247	6.9372
	1264.46	45.1937	6.72262
	1266.36	42.3374	6.50672
	1268.26	40.0595	6.32926
	1270.16	38.2288	6.18294
	1272.06	37.2119	6.10016
	1273.96	36.1934	6.01609
	1275.86	35.3035	5.94168
	1277.76	35.1773	5.93105
	1279.66	35.099	5.92444
	1281.56	35.0277	5.91842
	1283.46	34.8991	5.90755
	1285.36	34.79	5.8983
	1287.26	34.536	5.87673
	1289.16	34.4455	5.86903
	1291.06	34.3315	5.85931
	1292.97	34.5515	5.87806
	1294.87	34.5206	5.87542
	1296.77	34.8334	5.90198
	1298.67	35.0559	5.9208
	1300.57	35.8391	5.98657
	1302.47	36.6914	6.05734
	1304.37	37.5333	6.12644
	1306.27	38.5612	6.20976
	1308.17	40.0064	6.32506
	1310.07	41.7397	6.46063
	1311.97	43.7655	6.61555
	1313.87	45.9226	6.77662
	1315.77	48.3195	6.95122
	1317.67	50.9221	7.13597
	1319.57	53.9111	7.34242
	1321.47	57.1486	7.55967
	1323.37	59.2742	7.69897
	1325.27	60.2859	7.7644
	1327.17	59.8263	7.73475
	1329.07	57.1272	7.55826
	1330.97	51.766	7.19486
	1332.87	44.6299	6.68056
	1334.77	37.6894	6.13917
	1336.67	30.6312	5.53454
	1338.57	24.8618	4.98616
	1340.47	19.0603	4.36581
	1342.37	14.0456	3.74774
	1344.27	10.4764	3.23672
	1346.17	7.81882	2.79622
	1348.07	5.60845	2.36822
	1349.98	3.86626	1.96628
	1351.88	2.50719	1.58341
	1353.78	1.51714	1.23172
	1355.68	0.628763	0.792946
	1357.58	-0.228848	0.47838
	1359.48	-0.189789	0.435647
	1361.38	-0.355624	0.596343
	1363.28	0.26586	0.515616
	1365.18	0.478017	0.691388
	1367.08	0.884292	0.940368
	1368.98	0.951875	0.975641
	1370.88	0.949799	0.974576
	1372.78	0.660652	0.812805
	1374.68	1.02091	1.0104
	1376.58	1.63872	1.28013
	1378.48	2.24865	1.49955
	1380.38	3.13052	1.76933
	1382.28	3.79981	1.94931
	1384.18	4.59481	2.14355
	1386.08	4.76823	2.18363
	1387.98	5.69254	2.38591
	1389.88	6.40198	2.53021
	1391.78	7.30947	2.7036
	1393.68	7.76778	2.78707
	1395.58	8.07106	2.84096
	1397.48	7.71626	2.77782
	1399.38	7.20856	2.68488
	1401.28	6.89208	2.62528
	1403.18	6.71839	2.59199
	1405.08	6.8141	2.61038
	1406.98	6.94475	2.63529
	1408.89	7.0369	2.65272
	1410.79	6.99089	2.64403
	1412.69	6.52948	2.55529
	1414.59	6.24846	2.49969
	1416.49	5.76612	2.40127
	1418.39	4.84374	2.20085
	1420.29	3.54857	1.88376
	1422.19	2.35169	1.53352
	1424.09	1.50981	1.22874
	1425.99	0.766102	0.875273
	1427.89	0.0967693	0.311078
	1429.79	-0.0733473	0.270827
	1431.69	-0.047841	0.218726
	1433.59	0.0452493	0.212719
	1435.49	-0.219261	0.468253
	1437.39	-0.465068	0.681959
	1439.29	-0.418948	0.647262
	1441.19	-0.210624	0.458938
	1443.09	-0.285024	0.533877
	1444.99	-0.502426	0.70882
	1446.89	-0.451823	0.672178
	1448.79	-0.0551283	0.234794
	1450.69	0.366025	0.605
	1452.59	0.364757	0.603951
	1454.49	0.232896	0.482593
	1456.39	0.0356782	0.188887
	1458.29	-0.259351	0.509265
	1460.19	-0.135985	0.368762
	1462.09	0.232663	0.482352
	1463.99	0.288013	0.536668
	1465.89	0.276884	0.526197
	1467.8	0.455948	0.675239
	1469.7	0.620372	0.787637
	1471.6	0.572316	0.756516
	1473.5	0.746458	0.863978
	1475.4	0.65594	0.809901
	1477.3	0.349416	0.591114
	1479.2	0.214516	0.463159
	1481.1	0.222961	0.472187
	1483	0.322665	0.568036
	1484.9	0.504449	0.710245
	1486.8	0.93997	0.969521
	1488.7	0.997828	0.998913
	1490.6	1.02618	1.013
	1492.5	0.690036	0.830684
	1494.4	0.673932	0.820934
	1496.3	0.519715	0.720913
	1498.2	0.322594	0.567974
	1500.1	0.110724	0.332752
	1502	-0.0541766	0.232759
	1503.9	0.0115485	0.107464
	1505.8	-0.00421295	0.0649073
	1507.7	-0.00448244	0.066951
	1509.6	0.206078	0.453958
	1511.5	0.0943822	0.307217
	1513.4	0.217827	0.46672
	1515.3	0.0184821	0.135949
	1517.2	0.103741	0.322089
	1519.1	0.457202	0.676167
	1521	0.776077	0.880953
	1522.9	1.01136	1.00567
	1524.81	0.679859	0.824535
	1526.71	0.349308	0.591023
	1528.61	0.177494	0.4213
	1530.51	0.25458	0.504559
	1532.41	0.4044	0.635924
	1534.31	0.773141	0.879284
	1536.21	0.942701	0.970928
	1538.11	1.20598	1.09817
	1540.01	1.62251	1.27378
	1541.91	1.64688	1.28331
	1543.81	1.52679	1.23563
	1545.71	1.55385	1.24653
	1547.61	2.35859	1.53577
	1549.51	2.92306	1.7097
	1551.41	3.41803	1.84879
	1553.31	3.97715	1.99428
	1555.21	4.55098	2.1333
	1557.11	4.8946	2.21237
	1559.01	5.63511	2.37384
	1560.91	6.67994	2.58456
	1562.81	7.73811	2.78175
	1564.71	8.82687	2.97101
	1566.61	10.4977	3.24002
	1568.51	12.5892	3.54813
	1570.41	14.9198	3.86261
	1572.31	17.4339	4.17539
	1574.21	20.2179	4.49644
	1576.11	22.8859	4.78392
	1578.01	24.6825	4.96814
	1579.91	26.0329	5.10225
	1581.81	26.6196	5.15942
	1583.72	26.6893	5.16617
	1585.62	26.1917	5.11778
	1587.52	25.6234	5.06196
	1589.42	25.2673	5.02666
	1591.32	25.0235	5.00235
	1593.22	24.775	4.97745
	1595.12	24.7519	4.97512
	1597.02	25.1713	5.0171
	1598.92	25.8469	5.08398
	1600.82	26.24	5.1225
	1602.72	26.7272	5.16984
	1604.62	27.4015	5.23465
	1606.52	27.6608	5.25935
	1608.42	27.6377	5.25716
	1610.32	27.6365	5.25705
	1612.22	28.1824	5.30871
	1614.12	28.7949	5.36609
	1616.02	29.0336	5.38828
	1617.92	28.7845	5.36512
	1619.82	28.4207	5.33111
	1621.72	27.805	5.27305
	1623.62	27.0346	5.19948
	1625.52	26.2514	5.12362
	1627.42	25.0116	5.00116
	1629.32	23.3552	4.83273
	1631.22	21.4592	4.63241
	1633.12	19.6337	4.43099
	1635.02	17.7641	4.21474
	1636.92	15.9266	3.99082
	1638.82	14.241	3.77373
	1640.73	12.5641	3.54459
	1642.63	11.1252	3.33545
	1644.53	9.7386	3.12067
	1646.43	8.84015	2.97324
	1648.33	7.93973	2.81775
	1650.23	6.85591	2.61838
	1652.13	5.8725	2.42332
	1654.03	5.29268	2.30058
	1655.93	4.85357	2.20308
