Generated file C:/Users/didvk/Downloads/Dioptas_Win64_0.5.0/1_mask&dat&fxye_1position/9_ReMoB2_515psi_noRuby_S_P1_C1_D1w_061.fxye using DIOPTAS
# == pyFAI calibration ==
# Distance Sample to Detector: 0.21643023575112377 m
# PONI: 8.848e-02, 8.638e-02 m
# Rotations: 0.008179 -0.001145 -0.000000 rad
# 
# == Fit2d calibration ==
# Distance Sample-beamCenter: 216.438 mm
# Center: x=491.896, y=512.970 pix
# Tilt: 0.473 deg  TiltPlanRot: -172.032 deg
# 
# Detector Pilatus CdTe 1M	 PixelSize= 1.720e-04, 1.720e-04 m
#    Detector has a mask: True 
#    Detector has a dark current: False 
#    detector has a flat field: False 
# 
# Wavelength: 4.133e-11 m
# Mask applied: None
# Dark current applied: None
# Flat field applied: None
# Polarization factor: None
# Normalization factor: None
BANK	1	1006	1006 CONS	293.393	1.90033 0.4133 0.0 FXYE
	293.393	0.437009	0.661067
	295.294	0.297714	0.545632
	297.194	0.0993593	0.315213
	299.094	0.718064	0.847387
	300.995	1.29817	1.13937
	302.895	1.84383	1.35788
	304.795	1.32234	1.14993
	306.696	0.889438	0.9431
	308.596	1.05204	1.02569
	310.496	1.30714	1.1433
	312.397	1.43093	1.19622
	314.297	0.766218	0.875339
	316.197	0.563888	0.750925
	318.098	0.438479	0.662177
	319.998	0.907477	0.952616
	321.898	1.15956	1.07683
	323.799	1.49761	1.22377
	325.699	1.83873	1.356
	327.599	1.67017	1.29235
	329.5	1.28162	1.13209
	331.4	1.14785	1.07138
	333.3	1.29027	1.1359
	335.201	1.89192	1.37547
	337.101	2.49016	1.57802
	339.001	3.2264	1.79622
	340.902	4.1984	2.049
	342.802	5.96823	2.443
	344.702	8.77202	2.96176
	346.603	12.9377	3.5969
	348.503	18.2438	4.27128
	350.403	22.2873	4.72094
	352.304	22.8328	4.77837
	354.204	19.7297	4.44181
	356.104	14.4924	3.80689
	358.005	9.74465	3.12164
	359.905	6.38408	2.52667
	361.805	4.63274	2.15238
	363.706	3.27027	1.80839
	365.606	2.86833	1.69361
	367.506	2.17497	1.47478
	369.407	1.83963	1.35633
	371.307	1.76435	1.32829
	373.207	1.85016	1.36021
	375.108	1.36998	1.17046
	377.008	0.757706	0.870463
	378.908	0.0927456	0.304542
	380.808	-0.0595421	0.244012
	382.709	0.390767	0.625114
	384.609	0.254244	0.504226
	386.509	0.743241	0.862114
	388.41	0.769253	0.877071
	390.31	1.07245	1.03559
	392.21	1.1771	1.08494
	394.111	1.12813	1.06213
	396.011	1.12092	1.05873
	397.911	1.27074	1.12727
	399.812	1.14474	1.06993
	401.712	0.936607	0.967784
	403.612	1.00024	1.00012
	405.513	1.24472	1.11567
	407.413	1.07842	1.03847
	409.313	0.419363	0.647582
	411.214	0.436911	0.660993
	413.114	0.894937	0.946011
	415.014	1.53146	1.23752
	416.915	1.5432	1.24226
	418.815	1.19702	1.09408
	420.715	1.08199	1.04019
	422.616	1.32139	1.14952
	424.516	0.689688	0.830474
	426.416	0.853501	0.923851
	428.317	0.627261	0.791998
	430.217	0.549687	0.741409
	432.117	0.349827	0.591462
	434.018	0.500424	0.707407
	435.918	0.646195	0.803863
	437.818	0.866187	0.930692
	439.719	1.06925	1.03404
	441.619	1.37933	1.17445
	443.519	1.53016	1.23699
	445.42	0.962889	0.981269
	447.32	0.727004	0.852645
	449.22	0.351278	0.592687
	451.121	0.771177	0.878167
	453.021	0.309573	0.556393
	454.921	0.560606	0.748736
	456.822	0.565346	0.751895
	458.722	0.344227	0.586709
	460.622	0.217931	0.466831
	462.523	-0.0742261	0.272445
	464.423	-0.023644	0.153766
	466.323	0.00572651	0.0756737
	468.224	0.422681	0.650139
	470.124	1.00128	1.00064
	472.024	1.34711	1.16065
	473.924	1.59193	1.26172
	475.825	1.10824	1.05273
	477.725	0.86733	0.931306
	479.625	0.41085	0.640976
	481.526	0.24906	0.499059
	483.426	0.334157	0.578063
	485.326	0.0822128	0.286728
	487.227	-0.189452	0.435261
	489.127	-0.0713253	0.267068
	491.027	0.254261	0.504243
	492.928	0.191358	0.437445
	494.828	0.452539	0.67271
	496.728	0.573674	0.757413
	498.629	0.686849	0.828764
	500.529	0.659822	0.812294
	502.429	0.277234	0.52653
	504.33	0.0904276	0.300712
	506.23	0.0177834	0.133354
	508.13	-0.0112092	0.105873
	510.031	0.160399	0.400499
	511.931	0.546395	0.739185
	513.831	0.838289	0.915581
	515.732	1.18747	1.08971
	517.632	0.998901	0.999451
	519.532	0.6232	0.78943
	521.433	0.491278	0.700912
	523.333	0.373822	0.61141
	525.233	0.599372	0.774191
	527.134	1.02646	1.01314
	529.034	1.28068	1.13167
	530.934	1.27825	1.1306
	532.835	1.41531	1.18967
	534.735	1.05888	1.02902
	536.635	0.748866	0.86537
	538.536	0.3796	0.616117
	540.436	0.351002	0.592454
	542.336	-0.126031	0.355009
	544.237	-0.222482	0.47168
	546.137	0.00294504	0.0542682
	548.037	0.507533	0.712413
	549.938	0.910941	0.954432
	551.838	1.06913	1.03399
	553.738	0.928006	0.963331
	555.639	0.394502	0.628094
	557.539	0.028291	0.168199
	559.439	-0.004321	0.0657343
	561.34	0.115336	0.339611
	563.24	0.180222	0.424526
	565.14	0.391429	0.625643
	567.041	0.7721	0.878692
	568.941	0.430618	0.656215
	570.841	0.0205765	0.143445
	572.741	0.262646	0.51249
	574.642	1.54769	1.24406
	576.542	3.05765	1.74861
	578.442	4.36485	2.08922
	580.343	4.98198	2.23204
	582.243	4.87651	2.20828
	584.143	4.40222	2.09815
	586.044	3.48193	1.86599
	587.944	2.70534	1.64479
	589.844	2.09956	1.44899
	591.745	1.5308	1.23725
	593.645	1.2747	1.12903
	595.545	0.728111	0.853294
	597.446	0.427758	0.654032
	599.346	0.46665	0.683118
	601.246	0.690151	0.830753
	603.147	0.767271	0.87594
	605.047	0.439993	0.663319
	606.947	-0.200134	0.447364
	608.848	-0.134185	0.366313
	610.748	-0.0855558	0.292499
	612.648	0.219128	0.468111
	614.549	0.514231	0.717099
	616.449	0.611058	0.781702
	618.349	0.465406	0.682207
	620.25	0.614976	0.784204
	622.15	0.644551	0.80284
	624.05	0.20414	0.451818
	625.951	0.194953	0.441535
	627.851	0.26832	0.517996
	629.751	0.789742	0.888674
	631.652	1.12727	1.06173
	633.552	1.67461	1.29407
	635.452	2.46026	1.56852
	637.353	4.621	2.14965
	639.253	7.88611	2.80822
	641.153	13.4091	3.66184
	643.054	17.4978	4.18304
	644.954	19.7566	4.44483
	646.854	17.8752	4.22791
	648.755	14.7586	3.84169
	650.655	9.48453	3.0797
	652.555	5.94061	2.43734
	654.456	3.23305	1.79807
	656.356	1.98757	1.40981
	658.256	1.30923	1.14422
	660.157	1.20284	1.09674
	662.057	1.75567	1.32502
	663.957	2.50331	1.58219
	665.857	3.40167	1.84436
	667.758	4.71198	2.17071
	669.658	6.35534	2.52098
	671.558	8.62355	2.93659
	673.459	10.6798	3.268
	675.359	11.5917	3.40466
	677.259	11.9121	3.45139
	679.16	11.4544	3.38444
	681.06	10.975	3.31285
	682.96	10.5445	3.24723
	684.861	10.7173	3.27373
	686.761	11.3279	3.36569
	688.661	12.9596	3.59994
	690.562	16.4815	4.05974
	692.462	22.0716	4.69804
	694.362	31.6236	5.62349
	696.263	43.4722	6.59335
	698.163	58.6018	7.65518
	700.063	71.6692	8.46577
	701.964	82.2578	9.06961
	703.864	84.5306	9.19405
	705.764	81.8368	9.04637
	707.665	70.3827	8.38944
	709.565	58.4491	7.6452
	711.465	45.2498	6.7268
	713.366	34.285	5.85534
	715.266	25.5883	5.05848
	717.166	18.9378	4.35176
	719.067	13.5903	3.6865
	720.967	9.88079	3.14337
	722.867	6.95004	2.63629
	724.768	5.25476	2.29233
	726.668	4.66005	2.15871
	728.568	4.23811	2.05867
	730.469	3.0635	1.75029
	732.369	2.04438	1.42982
	734.269	1.28281	1.13261
	736.17	1.12388	1.06013
	738.07	0.989968	0.994971
	739.97	1.01747	1.0087
	741.871	0.847208	0.920439
	743.771	0.748945	0.865416
	745.671	0.762321	0.87311
	747.572	0.672622	0.820135
	749.472	0.436407	0.660611
	751.372	0.29346	0.541719
	753.273	0.388038	0.622927
	755.173	0.408461	0.639109
	757.073	0.1013	0.318276
	758.973	-0.0264255	0.162559
	760.874	0.00220781	0.0469874
	762.774	0.335261	0.579017
	764.674	0.365237	0.604348
	766.575	0.204023	0.451689
	768.475	0.321092	0.566649
	770.375	0.246076	0.49606
	772.276	0.147579	0.38416
	774.176	-0.00758383	0.0870852
	776.076	0.214329	0.462956
	777.977	0.255366	0.505338
	779.877	0.0855544	0.292497
	781.777	0.18321	0.42803
	783.678	0.729657	0.854199
	785.578	1.02478	1.01232
	787.478	1.00439	1.00219
	789.379	0.94963	0.97449
	791.279	0.953747	0.9766
	793.179	0.921079	0.959729
	795.08	0.578072	0.760311
	796.98	0.68752	0.829168
	798.88	0.613648	0.783357
	800.781	0.407431	0.638303
	802.681	0.731485	0.855269
	804.581	0.379293	0.615868
	806.482	0.109951	0.331589
	808.382	-0.380304	0.616688
	810.282	-0.171629	0.414282
	812.183	-0.0976242	0.312449
	814.083	0.0524111	0.228935
	815.983	0.262572	0.512418
	817.884	0.582952	0.763513
	819.784	0.619037	0.786789
	821.684	0.72331	0.850476
	823.585	0.831982	0.912131
	825.485	0.577192	0.759731
	827.385	0.16324	0.404029
	829.286	-0.0113551	0.10656
	831.186	0.180677	0.425061
	833.086	0.337284	0.580762
	834.987	0.573846	0.757527
	836.887	0.448045	0.669361
	838.787	0.374593	0.61204
	840.688	0.647918	0.804933
	842.588	0.780794	0.883625
	844.488	0.591675	0.769204
	846.389	0.611341	0.781883
	848.289	0.594069	0.770759
	850.189	0.545575	0.738631
	852.089	0.695212	0.833794
	853.99	0.731783	0.855443
	855.89	0.651062	0.806884
	857.79	0.328944	0.573537
	859.691	0.194776	0.441334
	861.591	0.068053	0.26087
	863.491	-0.118429	0.344135
	865.392	-0.108738	0.329754
	867.292	0.160057	0.400071
	869.192	0.286016	0.534804
	871.093	0.55309	0.7437
	872.993	0.315294	0.561511
	874.893	0.303391	0.550809
	876.794	-0.0913086	0.302173
	878.694	0.0954122	0.308889
	880.594	0.183463	0.428326
	882.495	0.0435799	0.208758
	884.395	-0.103513	0.321735
	886.295	-0.373321	0.611
	888.196	-0.0165877	0.128793
	890.096	0.244473	0.494442
	891.996	0.214363	0.462994
	893.897	-0.0617715	0.248539
	895.797	-0.171526	0.414157
	897.697	0.0208404	0.144362
	899.598	0.418825	0.647167
	901.498	1.01356	1.00676
	903.398	1.48477	1.21851
	905.299	2.11555	1.45449
	907.199	2.82265	1.68007
	909.099	3.97529	1.99381
	911	5.62588	2.37189
	912.9	7.91064	2.81259
	914.8	11.1536	3.33971
	916.701	14.7942	3.84632
	918.601	18.7416	4.32916
	920.501	23.343	4.83146
	922.402	28.3841	5.32767
	924.302	34.2269	5.85037
	926.202	40.2752	6.34627
	928.103	47.2288	6.87232
	930.003	54.3811	7.37435
	931.903	62.8928	7.9305
	933.804	72.6937	8.52606
	935.704	85.374	9.2398
	937.604	101.606	10.08
	939.505	120.977	10.999
	941.405	148.915	12.2031
	943.305	183.505	13.5464
	945.206	228.577	15.1188
	947.106	279.725	16.725
	949.006	337.794	18.3792
	950.906	394.064	19.8511
	952.807	437.779	20.9232
	954.707	471.886	21.7229
	956.607	483.574	21.9903
	958.508	474.882	21.7918
	960.408	443.664	21.0633
	962.308	405.906	20.1471
	964.209	362.116	19.0293
	966.109	319.937	17.8868
	968.009	283.675	16.8427
	969.91	249.615	15.7992
	971.81	224.202	14.9734
	973.71	200.058	14.1442
	975.611	177.176	13.3108
	977.511	152.378	12.3441
	979.411	127.923	11.3103
	981.312	104.489	10.222
	983.212	83.9733	9.1637
	985.112	66.2562	8.13979
	987.013	51.8055	7.1976
	988.913	40.7229	6.38145
	990.813	31.7054	5.63076
	992.714	24.9258	4.99257
	994.614	19.5432	4.42077
	996.514	15.1714	3.89505
	998.415	11.1488	3.33898
	1000.31	8.54935	2.92393
	1002.22	6.57437	2.56405
	1004.12	4.86645	2.206
	1006.02	3.1768	1.78236
	1007.92	1.92356	1.38693
	1009.82	0.977466	0.988669
	1011.72	0.463489	0.6808
	1013.62	0.109806	0.331369
	1015.52	-0.325352	0.570396
	1017.42	-0.92942	0.964064
	1019.32	-0.815293	0.902936
	1021.22	-0.773198	0.879317
	1023.12	-0.716745	0.846608
	1025.02	-0.879554	0.937845
	1026.92	-0.770254	0.877641
	1028.82	-0.441907	0.664761
	1030.72	0.192305	0.438526
	1032.62	0.356927	0.597434
	1034.52	0.856006	0.925206
	1036.42	1.35042	1.16207
	1038.32	1.78032	1.33429
	1040.22	2.1038	1.45045
	1042.12	2.40861	1.55197
	1044.02	3.03243	1.74139
	1045.92	3.74177	1.93437
	1047.82	4.77122	2.18431
	1049.72	6.10662	2.47116
	1051.62	7.69959	2.77481
	1053.52	9.4606	3.07581
	1055.42	11.2333	3.35161
	1057.32	13.6233	3.69098
	1059.23	15.5624	3.94493
	1061.13	17.6362	4.19955
	1063.03	19.2536	4.38789
	1064.93	20.452	4.52239
	1066.83	20.8591	4.56717
	1068.73	21.1909	4.60336
	1070.63	21.2466	4.6094
	1072.53	21.2051	4.6049
	1074.43	20.3291	4.50878
	1076.33	19.3644	4.4005
	1078.23	18.9387	4.35187
	1080.13	18.227	4.26931
	1082.03	17.8212	4.22152
	1083.93	17.3685	4.16756
	1085.83	17.2626	4.15483
	1087.73	17.8588	4.22597
	1089.63	18.4426	4.29448
	1091.53	19.9454	4.46602
	1093.43	20.8568	4.56693
	1095.33	21.8397	4.67329
	1097.23	22.2074	4.71248
	1099.13	23.4491	4.84243
	1101.03	24.6653	4.96641
	1102.93	26.1488	5.11359
	1104.83	26.745	5.17156
	1106.73	27.4265	5.23703
	1108.63	28.5497	5.34319
	1110.53	28.9428	5.37985
	1112.43	29.4938	5.43082
	1114.33	29.9779	5.4752
	1116.23	29.6273	5.4431
	1118.14	28.772	5.36395
	1120.04	28.0466	5.29591
	1121.94	28.1968	5.31007
	1123.84	28.4295	5.33193
	1125.74	29.0639	5.39109
	1127.64	30.3335	5.50759
	1129.54	30.2793	5.50267
	1131.44	30.5753	5.52949
	1133.34	30.1818	5.4938
	1135.24	29.2338	5.40683
	1137.14	26.7439	5.17145
	1139.04	23.7163	4.86994
	1140.94	20.8126	4.56209
	1142.84	17.5398	4.18805
	1144.74	15.245	3.90449
	1146.64	12.5053	3.53628
	1148.54	10.7418	3.27747
	1150.44	8.81247	2.96858
	1152.34	7.37561	2.71581
	1154.24	6.399	2.52962
	1156.14	5.77033	2.40215
	1158.04	4.87175	2.2072
	1159.94	4.2269	2.05594
	1161.84	3.77233	1.94225
	1163.74	3.71895	1.92846
	1165.64	2.8374	1.68446
	1167.54	2.09502	1.44742
	1169.44	2.13537	1.46129
	1171.34	1.91485	1.38378
	1173.24	1.88013	1.37118
	1175.15	1.2983	1.13943
	1177.05	0.925689	0.962127
	1178.95	0.332072	0.576257
	1180.85	-0.390797	0.625138
	1182.75	-0.427835	0.654091
	1184.65	-0.478964	0.692073
	1186.55	-0.597662	0.773086
	1188.45	-0.959466	0.979524
	1190.35	-0.949889	0.974622
	1192.25	-1.06021	1.02966
	1194.15	-0.628791	0.792963
	1196.05	-0.352771	0.593945
	1197.95	0.430231	0.65592
	1199.85	1.11686	1.05681
	1201.75	2.17103	1.47344
	1203.65	3.20573	1.79046
	1205.55	4.90143	2.21392
	1207.45	7.14665	2.67332
	1209.35	9.61739	3.10119
	1211.25	12.8979	3.59136
	1213.15	15.9784	3.99729
	1215.05	18.4037	4.28995
	1216.95	21.0069	4.58333
	1218.85	22.4418	4.73727
	1220.75	23.3408	4.83123
	1222.65	23.139	4.8103
	1224.55	22.6338	4.7575
	1226.45	21.3371	4.61921
	1228.35	20.3802	4.51444
	1230.25	19.4864	4.41434
	1232.15	19.1376	4.37466
	1234.06	18.873	4.34431
	1235.96	18.9085	4.34839
	1237.86	19.4879	4.4145
	1239.76	20.9275	4.57466
	1241.66	22.4273	4.73574
	1243.56	24.6363	4.9635
	1245.46	27.2044	5.21578
	1247.36	30.5536	5.52753
	1249.26	34.1838	5.84669
	1251.16	38.9523	6.24118
	1253.06	44.8566	6.69751
	1254.96	51.6149	7.18435
	1256.86	60.1736	7.75716
	1258.76	68.0584	8.24975
	1260.66	78.565	8.86369
	1262.56	87.3882	9.34817
	1264.46	99.1935	9.95959
	1266.36	109.343	10.4567
	1268.26	122.782	11.0807
	1270.16	135.958	11.6601
	1272.06	138.016	11.748
	1273.96	138.327	11.7613
	1275.86	129.309	11.3714
	1277.76	105.674	10.2798
	1279.66	90.4615	9.51113
	1281.56	75.7363	8.70266
	1283.46	62.9808	7.93604
	1285.36	55.8363	7.47237
	1287.26	48.646	6.97467
	1289.16	45.0203	6.70972
	1291.06	41.2788	6.42486
	1292.97	39.0889	6.25211
	1294.87	37.3559	6.11195
	1296.77	36.2319	6.01929
	1298.67	35.2395	5.93629
	1300.57	34.3804	5.86348
	1302.47	33.7067	5.80575
	1304.37	32.557	5.70587
	1306.27	31.0199	5.56955
	1308.17	29.7143	5.45108
	1310.07	28.7718	5.36394
	1311.97	28.3207	5.32172
	1313.87	27.7516	5.26798
	1315.77	27.5352	5.2474
	1317.67	27.5684	5.25057
	1319.57	27.327	5.22752
	1321.47	26.8129	5.17812
	1323.37	26.769	5.17388
	1325.27	26.8828	5.18486
	1327.17	26.8345	5.1802
	1329.07	26.6265	5.16009
	1330.97	26.495	5.14733
	1332.87	26.3928	5.1374
	1334.77	26.7513	5.17217
	1336.67	27.5263	5.24655
	1338.57	28.3951	5.32871
	1340.47	29.5857	5.43928
	1342.37	30.6185	5.53339
	1344.27	32.1921	5.67381
	1346.17	33.1998	5.76193
	1348.07	34.3083	5.85733
	1349.98	34.7492	5.89484
	1351.88	34.9852	5.91483
	1353.78	34.2271	5.85039
	1355.68	31.9894	5.65592
	1357.58	28.5714	5.34522
	1359.48	24.5791	4.95773
	1361.38	20.0292	4.47539
	1363.28	15.9084	3.98854
	1365.18	11.7215	3.42366
	1367.08	8.27325	2.87633
	1368.98	5.70488	2.38849
	1370.88	3.64776	1.90991
	1372.78	2.02239	1.42211
	1374.68	0.632169	0.795091
	1376.58	-0.0857326	0.292801
	1378.48	-0.242894	0.492842
	1380.38	-0.0169229	0.130088
	1382.28	0.155394	0.394201
	1384.18	0.612796	0.782813
	1386.08	0.704435	0.839306
	1387.98	0.819254	0.905127
	1389.88	1.32318	1.1503
	1391.78	1.70908	1.30732
	1393.68	1.99598	1.41279
	1395.58	2.10305	1.45019
	1397.48	2.87249	1.69484
	1399.38	3.49275	1.86889
	1401.28	4.21309	2.05258
	1403.18	4.67739	2.16273
	1405.08	5.10653	2.25976
	1406.98	5.49344	2.34381
	1408.89	5.90082	2.42916
	1410.79	6.5481	2.55892
	1412.69	7.30215	2.70225
	1414.59	7.94138	2.81805
	1416.49	8.37401	2.89379
	1418.39	9.19431	3.03221
	1420.29	10.0262	3.16642
	1422.19	10.817	3.28892
	1424.09	11.4242	3.37997
	1425.99	11.5305	3.39566
	1427.89	10.672	3.2668
	1429.79	9.58767	3.0964
	1431.69	8.65993	2.94278
	1433.59	7.47415	2.73389
	1435.49	5.71191	2.38996
	1437.39	3.79905	1.94911
	1439.29	2.25881	1.50293
	1441.19	1.42874	1.1953
	1443.09	0.647516	0.804684
	1444.99	0.223956	0.47324
	1446.89	-0.393516	0.627309
	1448.79	-0.86931	0.932368
	1450.69	-0.962041	0.980837
	1452.59	-0.818335	0.904619
	1454.49	-0.486321	0.697368
	1456.39	-0.442696	0.665354
	1458.29	-0.606426	0.778734
	1460.19	-0.478784	0.691942
	1462.09	-0.275955	0.525314
	1463.99	-0.243587	0.493546
	1465.89	-0.180872	0.42529
	1467.8	-0.128481	0.358443
	1469.7	-0.0498341	0.223236
	1471.6	0.18395	0.428894
	1473.5	0.44647	0.668184
	1475.4	0.611091	0.781723
	1477.3	0.374003	0.611558
	1479.2	0.18795	0.433532
	1481.1	0.177693	0.421537
	1483	0.334223	0.57812
	1484.9	0.427754	0.654029
	1486.8	0.906004	0.951843
	1488.7	0.540726	0.735341
	1490.6	0.614362	0.783813
	1492.5	0.552157	0.743072
	1494.4	0.947679	0.973488
	1496.3	1.17711	1.08495
	1498.2	0.895628	0.946376
	1500.1	0.182218	0.42687
	1502	0.0493845	0.222226
	1503.9	0.476959	0.690622
	1505.8	1.13515	1.06543
	1507.7	1.14062	1.068
	1509.6	1.01738	1.00865
	1511.5	0.816573	0.903644
	1513.4	0.655968	0.809919
	1515.3	0.670541	0.818865
	1517.2	0.782812	0.884767
	1519.1	0.935064	0.966987
	1521	0.655319	0.809518
	1522.9	0.730766	0.854849
	1524.81	0.532744	0.729893
	1526.71	0.353429	0.594499
	1528.61	-0.00881425	0.0938842
	1530.51	-0.130545	0.36131
	1532.41	0.0295794	0.171987
	1534.31	-0.104871	0.323838
	1536.21	0.108179	0.328906
	1538.11	0.120799	0.347562
	1540.01	0.283114	0.532085
	1541.91	0.415065	0.644255
	1543.81	0.314223	0.560556
	1545.71	0.736366	0.858118
	1547.61	0.386111	0.621379
	1549.51	-0.000856995	0.0292745
	1551.41	-0.103813	0.3222
	1553.31	0.16102	0.401273
	1555.21	0.430615	0.656212
	1557.11	0.596895	0.772589
	1559.01	0.755907	0.869429
	1560.91	0.981141	0.990526
	1562.81	1.28628	1.13414
	1564.71	1.57024	1.25309
	1566.61	1.8284	1.35218
	1568.51	2.21975	1.48988
	1570.41	2.45359	1.5664
	1572.31	2.58631	1.6082
	1574.21	2.36716	1.53856
	1576.11	2.74511	1.65684
	1578.01	3.03402	1.74184
	1579.91	3.72483	1.92998
	1581.81	3.96148	1.99035
	1583.72	4.53663	2.12994
	1585.62	5.04812	2.2468
	1587.52	5.78722	2.40566
	1589.42	6.57876	2.56491
	1591.32	7.27171	2.69661
	1593.22	7.68883	2.77287
	1595.12	8.16756	2.85789
	1597.02	9.00136	3.00023
	1598.92	10.19	3.19218
	1600.82	11.3691	3.37181
	1602.72	12.4338	3.52617
	1604.62	13.642	3.69351
	1606.52	14.9825	3.87073
	1608.42	16.128	4.01597
	1610.32	16.64	4.07922
	1612.22	17.4564	4.17809
	1614.12	18.1987	4.26599
	1616.02	18.5441	4.30629
	1617.92	18.8838	4.34555
	1619.82	19.2918	4.39225
	1621.72	19.8694	4.45751
	1623.62	20.7622	4.55656
	1625.52	21.4814	4.63481
	1627.42	22.1378	4.70508
	1629.32	22.6669	4.76098
	1631.22	23.1531	4.81176
	1633.12	23.8145	4.88001
	1635.02	24.2394	4.92335
	1636.92	24.9416	4.99416
	1638.82	25.9827	5.09732
	1640.73	27.1386	5.20947
	1642.63	27.9842	5.29001
	1644.53	27.9933	5.29087
	1646.43	27.774	5.27011
	1648.33	27.6025	5.25381
	1650.23	27.4215	5.23655
	1652.13	26.8342	5.18017
	1654.03	25.6956	5.06908
	1655.93	24.5922	4.95905
	1657.83	22.8634	4.78157
